%OpenBCI Raw EEG Data
%Number of channels = 16
%Sample Rate = 125 Hz
%Board = OpenBCI_GUI$BoardCytonSerialDaisy
Sample Index, EXG Channel 0, EXG Channel 1, EXG Channel 2, EXG Channel 3, EXG Channel 4, EXG Channel 5, EXG Channel 6, EXG Channel 7, EXG Channel 8, EXG Channel 9, EXG Channel 10, EXG Channel 11, EXG Channel 12, EXG Channel 13, EXG Channel 14, EXG Channel 15, Accel Channel 0, Accel Channel 1, Accel Channel 2, Other, Other, Other, Other, Other, Other, Other, Analog Channel 0, Analog Channel 1, Analog Channel 2, Timestamp, Timestamp (Formatted)
0.0, -1213598.8125, -1550165.625, -1726952.8125, -2250000.1875, -2250000.1875, -1645420.5, -1514540.53125, -1726981.6875, -45134.0712890625, -45075.6005859375, -45151.236328125, -45104.0302734375, -45090.6181640625, -45110.466796875, -45110.466796875, 0.0, 0.0, 0.0, 0.0, 196.0, 0.0, 0.0, 0.0, 21.0, 107.0, 184.5, 0.0, 0.0, 0.0, 1.6298528420921636E9, 2021-08-24 18:54:02.092
2.0, -2436551.625, -3108414.9375, -3454283.25, -4500000.375, -4500000.375, -3293869.875, -3036078.0, -3453830.25, -4500000.375, -4500000.375, -4500000.375, -4500000.375, -4500000.375, -4500000.375, -4500000.375, -4500000.375, 0.0, 0.0, 0.0, 196.0, 0.0, 0.0, 0.0, 21.0, 107.0, 198.0, 0.0, 0.0, 0.0, 1.6298528420922947E9, 2021-08-24 18:54:02.092
4.0, -2429058.5625, -3101505.5625, -3454061.625, -4500000.375, -4500000.375, -3290757.375, -3027702.375, -3454077.0, -4500000.375, -4500000.375, -4500000.375, -4500000.375, -4500000.375, -4500000.375, -4500000.375, -4500000.375, 0.0, 0.0, 0.0, 196.0, 0.0, 0.0, 0.0, 21.0, 107.0, 206.0, 0.0, 0.0, 0.0, 1.6298528420923018E9, 2021-08-24 18:54:02.092
6.0, -2435826.375, -3108032.4375, -3454445.625, -4500000.375, -4500000.375, -3294002.25, -3036392.25, -3453642.0, -4500000.375, -4500000.375, -4500000.375, -4500000.375, -4500000.375, -4500000.375, -4500000.375, -4500000.375, 0.0, 0.0, 0.0, 196.0, 1.0, 56.0, 0.0, 21.0, 107.0, 213.0, 0.0, 0.0, 0.0, 1.6298528420923092E9, 2021-08-24 18:54:02.092
8.0, -2429481.75, -3101903.0625, -3453854.625, -4500000.375, -4500000.375, -3290499.0, -3027360.75, -3453393.375, -4500000.375, -4500000.375, -4500000.375, -4500000.375, -4500000.375, -4500000.375, -4500000.375, -4500000.375, 0.0, 0.0, 0.0, 196.0, 20.0, 128.0, 0.0, 21.0, 107.0, 221.0, 0.0, 0.0, 0.0, 1.629852842092317E9, 2021-08-24 18:54:02.092
10.0, -2434639.6875, -3107297.625, -3454225.875, -4500000.375, -4500000.375, -3293528.25, -3035811.9375, -3453048.75, -4500000.375, -4500000.375, -4500000.375, -4500000.375, -4500000.375, -4500000.375, -4500000.375, -4500000.375, 0.0, 0.0, 0.0, 196.0, 0.0, 0.0, 0.0, 21.0, 107.0, 229.0, 0.0, 0.0, 0.0, 1.6298528420923243E9, 2021-08-24 18:54:02.092
12.0, -2430438.375, -3102883.6875, -3454116.75, -4500000.375, -4500000.375, -3290956.5, -3027960.5625, -3453579.75, -4500000.375, -4500000.375, -4500000.375, -4500000.375, -4500000.375, -4500000.375, -4500000.375, -4500000.375, 0.0, 0.0, 0.0, 196.0, 0.0, 0.0, 0.0, 21.0, 107.0, 237.0, 0.0, 0.0, 0.0, 1.6298528420923312E9, 2021-08-24 18:54:02.092
14.0, -2433949.3125, -3106533.1875, -3454280.625, -4500000.375, -4500000.375, -3293522.25, -3035473.875, -3453673.875, -4500000.375, -4500000.375, -4500000.375, -4500000.375, -4500000.375, -4500000.375, -4500000.375, -4500000.375, 0.0, 0.0, 0.0, 196.0, 0.0, 0.0, 0.0, 21.0, 107.0, 245.0, 0.0, 0.0, 0.0, 1.6298528420923378E9, 2021-08-24 18:54:02.092
16.0, -2431700.0625, -3103590.75, -3454002.75, -4500000.375, -4500000.375, -3291081.0, -3028201.875, -3453914.25, -4500000.375, -4500000.375, -4500000.375, -4500000.375, -4500000.375, -4500000.375, -4500000.375, -4500000.375, 0.0, 0.0, 0.0, 196.0, 1.0, 8.0, 0.0, 21.0, 107.0, 253.0, 0.0, 0.0, 0.0, 1.6298528420923445E9, 2021-08-24 18:54:02.092
18.0, -2433344.25, -3105889.3125, -3454621.125, -4500000.375, -4500000.375, -3293371.125, -3035049.0, -3454338.0, -4500000.375, -4500000.375, -4500000.375, -4500000.375, -4500000.375, -4500000.375, -4500000.375, -4500000.375, 0.0, 0.0, 0.0, 196.0, 19.5, 200.0, 0.0, 21.0, 108.0, 5.0, 0.0, 0.0, 0.0, 1.6298528420923517E9, 2021-08-24 18:54:02.092
20.0, -2433009.5625, -3104543.4375, -3454208.25, -4500000.375, -4500000.375, -3291384.0, -3029158.3125, -3453893.25, -4500000.375, -4500000.375, -4500000.375, -4500000.375, -4500000.375, -4500000.375, -4500000.375, -4500000.375, 0.0, 0.0, 0.0, 196.0, 0.0, 0.0, 0.0, 21.0, 108.0, 13.0, 0.0, 0.0, 0.0, 1.6298528420923584E9, 2021-08-24 18:54:02.092
22.0, -2432019.1875, -3104939.4375, -3454640.625, -4500000.375, -4500000.375, -3292925.25, -3034066.3125, -3454090.125, -4500000.375, -4500000.375, -4500000.375, -4500000.375, -4500000.375, -4500000.375, -4500000.375, -4500000.375, 0.0, 0.0, 0.0, 196.0, 0.0, 0.0, 0.0, 21.0, 108.0, 21.0, 0.0, 0.0, 0.0, 1.6298528420923653E9, 2021-08-24 18:54:02.092
24.0, -2433772.3125, -3105388.875, -3454044.375, -4500000.375, -4500000.375, -3291492.75, -3029931.375, -3453169.875, -4500000.375, -4500000.375, -4500000.375, -4500000.375, -4500000.375, -4500000.375, -4500000.375, -4500000.375, 0.0, 0.0, 0.0, 196.0, 0.0, 0.0, 0.0, 21.0, 108.0, 29.0, 0.0, 0.0, 0.0, 1.6298528420923722E9, 2021-08-24 18:54:02.092
26.0, -2430615.375, -3103866.9375, -3454541.25, -4500000.375, -4500000.375, -3292344.375, -3033007.3125, -3453606.75, -4500000.375, -4500000.375, -4500000.375, -4500000.375, -4500000.375, -4500000.375, -4500000.375, -4500000.375, 0.0, 0.0, 0.0, 196.0, 1.0, 16.0, 0.0, 21.0, 108.0, 37.0, 0.0, 0.0, 0.0, 1.629852842092379E9, 2021-08-24 18:54:02.092
28.0, -2434686.9375, -3106492.875, -3454412.625, -4500000.375, -4500000.375, -3292023.375, -3031177.5, -3453438.375, -4500000.375, -4500000.375, -4500000.375, -4500000.375, -4500000.375, -4500000.375, -4500000.375, -4500000.375, 0.0, 0.0, 0.0, 196.0, 19.5, 168.0, 0.0, 21.0, 108.0, 45.0, 0.0, 0.0, 0.0, 1.629852842092386E9, 2021-08-24 18:54:02.092
30.0, -2429549.4375, -3102653.625, -3454269.375, -4500000.375, -4500000.375, -3291576.0, -3031717.125, -3453463.875, -4500000.375, -4500000.375, -4500000.375, -4500000.375, -4500000.375, -4500000.375, -4500000.375, -4500000.375, 0.0, 0.0, 0.0, 196.0, 0.0, 0.0, 0.0, 21.0, 108.0, 53.0, 0.0, 0.0, 0.0, 1.6298528420923927E9, 2021-08-24 18:54:02.092
32.0, -2435367.1875, -3107024.0625, -3454150.5, -4500000.375, -4500000.375, -3292104.375, -3032320.125, -3453226.875, -4500000.375, -4500000.375, -4500000.375, -4500000.375, -4500000.375, -4500000.375, -4500000.375, -4500000.375, 0.0, 0.0, 0.0, 196.0, 0.0, 0.0, 0.0, 21.0, 108.0, 61.0, 0.0, 0.0, 0.0, 1.6298528420923996E9, 2021-08-24 18:54:02.092
34.0, -2428815.0, -3101874.75, -3454076.25, -4500000.375, -4500000.375, -3290885.625, -3030474.1875, -3453370.125, -4500000.375, -4500000.375, -4500000.375, -4500000.375, -4500000.375, -4500000.375, -4500000.375, -4500000.375, 0.0, 0.0, 0.0, 196.0, 0.0, 0.0, 0.0, 21.0, 108.0, 69.0, 0.0, 0.0, 0.0, 1.6298528420924146E9, 2021-08-24 18:54:02.092
36.0, -2436132.1875, -3107538.9375, -3453896.25, -4500000.375, -4500000.375, -3292057.875, -3033095.8125, -3453065.625, -4500000.375, -4500000.375, -4500000.375, -4500000.375, -4500000.375, -4500000.375, -4500000.375, -4500000.375, 0.0, 0.0, 0.0, 196.0, 1.0, 40.0, 0.0, 21.0, 108.0, 77.0, 0.0, 0.0, 0.0, 1.6298528420924213E9, 2021-08-24 18:54:02.092
38.0, -2428546.875, -3101296.3125, -3453984.375, -4500000.375, -4500000.375, -3290540.25, -3029409.375, -3453842.25, -4500000.375, -4500000.375, -4500000.375, -4500000.375, -4500000.375, -4500000.375, -4500000.375, -4500000.375, 0.0, 0.0, 0.0, 196.0, 19.5, 184.0, 0.0, 21.0, 108.0, 85.0, 0.0, 0.0, 0.0, 1.6298528420924282E9, 2021-08-24 18:54:02.092
40.0, -2436915.375, -3108324.9375, -3454458.0, -4500000.375, -4500000.375, -3293027.625, -3034543.6875, -3453943.5, -4500000.375, -4500000.375, -4500000.375, -4500000.375, -4500000.375, -4500000.375, -4500000.375, -4500000.375, 0.0, 0.0, 0.0, 196.0, 0.0, 0.0, 0.0, 21.0, 108.0, 93.0, 0.0, 0.0, 0.0, 1.629852842092435E9, 2021-08-24 18:54:02.092
42.0, -2428279.125, -3101259.375, -3454432.125, -4500000.375, -4500000.375, -3290795.625, -3029009.8125, -3454030.5, -4500000.375, -4500000.375, -4500000.375, -4500000.375, -4500000.375, -4500000.375, -4500000.375, -4500000.375, 0.0, 0.0, 0.0, 196.0, 0.0, 0.0, 0.0, 21.0, 108.0, 101.0, 0.0, 0.0, 0.0, 1.6298528420924416E9, 2021-08-24 18:54:02.092
44.0, -2436823.5, -3108774.375, -3454815.75, -4500000.375, -4500000.375, -3293676.375, -3035766.1875, -3453588.375, -4500000.375, -4500000.375, -4500000.375, -4500000.375, -4500000.375, -4500000.375, -4500000.375, -4500000.375, 0.0, 0.0, 0.0, 196.0, 0.0, 0.0, 0.0, 21.0, 108.0, 109.0, 0.0, 0.0, 0.0, 1.6298528420924485E9, 2021-08-24 18:54:02.092
46.0, -2428107.9375, -3101255.625, -3454323.75, -4500000.375, -4500000.375, -3290526.75, -3028356.375, -3453569.625, -4500000.375, -4500000.375, -4500000.375, -4500000.375, -4500000.375, -4500000.375, -4500000.375, -4500000.375, 0.0, 0.0, 0.0, 196.0, 1.0, 48.0, 0.0, 21.0, 108.0, 117.0, 0.0, 0.0, 0.0, 1.6298528420924551E9, 2021-08-24 18:54:02.092
48.0, -2436480.75, -3108555.0, -3454656.375, -4500000.375, -4500000.375, -3293487.0, -3036198.5625, -3453199.5, -4500000.375, -4500000.375, -4500000.375, -4500000.375, -4500000.375, -4500000.375, -4500000.375, -4500000.375, 0.0, 0.0, 0.0, 196.0, 19.5, 192.0, 0.0, 21.0, 108.0, 125.0, 0.0, 0.0, 0.0, 1.629852842092462E9, 2021-08-24 18:54:02.092
50.0, -2428348.875, -3100985.25, -3453863.25, -4500000.375, -4500000.375, -3289767.75, -3027464.8125, -3453042.75, -4500000.375, -4500000.375, -4500000.375, -4500000.375, -4500000.375, -4500000.375, -4500000.375, -4500000.375, 0.0, 0.0, 0.0, 196.0, 0.0, 0.0, 0.0, 21.0, 108.0, 133.0, 0.0, 0.0, 0.0, 1.6298528420924687E9, 2021-08-24 18:54:02.092
52.0, -2435853.1875, -3107833.5, -3454052.625, -4500000.375, -4500000.375, -3292748.625, -3035658.375, -3452913.0, -4500000.375, -4500000.375, -4500000.375, -4500000.375, -4500000.375, -4500000.375, -4500000.375, -4500000.375, 0.0, 0.0, 0.0, 196.0, 0.0, 0.0, 0.0, 21.0, 108.0, 141.0, 0.0, 0.0, 0.0, 1.6298528420924757E9, 2021-08-24 18:54:02.092
54.0, -2429127.1875, -3101377.875, -3453965.625, -4500000.375, -4500000.375, -3289771.5, -3027229.875, -3453686.625, -4500000.375, -4500000.375, -4500000.375, -4500000.375, -4500000.375, -4500000.375, -4500000.375, -4500000.375, 0.0, 0.0, 0.0, 196.0, 0.0, 0.0, 0.0, 21.0, 108.0, 149.0, 0.0, 0.0, 0.0, 1.629852842092482E9, 2021-08-24 18:54:02.092
56.0, -2435672.8125, -3107610.75, -3454462.875, -4500000.375, -4500000.375, -3293113.5, -3036085.5, -3453693.0, -4500000.375, -4500000.375, -4500000.375, -4500000.375, -4500000.375, -4500000.375, -4500000.375, -4500000.375, 0.0, 0.0, 0.0, 196.0, 1.0, 80.0, 0.0, 21.0, 108.0, 157.0, 0.0, 0.0, 0.0, 1.629852842092489E9, 2021-08-24 18:54:02.092
58.0, -2430050.4375, -3102052.3125, -3454080.375, -4500000.375, -4500000.375, -3290239.125, -3027632.25, -3454015.5, -4500000.375, -4500000.375, -4500000.375, -4500000.375, -4500000.375, -4500000.375, -4500000.375, -4500000.375, 0.0, 0.0, 0.0, 196.0, 19.5, 128.0, 0.0, 21.0, 108.0, 165.0, 0.0, 0.0, 0.0, 1.629852842092496E9, 2021-08-24 18:54:02.092
60.0, -2434870.3125, -3107064.1875, -3454623.75, -4500000.375, -4500000.375, -3293384.25, -3036203.4375, -3453965.625, -4500000.375, -4500000.375, -4500000.375, -4500000.375, -4500000.375, -4500000.375, -4500000.375, -4500000.375, 0.0, 0.0, 0.0, 196.0, 0.0, 0.0, 0.0, 21.0, 108.0, 173.0, 0.0, 0.0, 0.0, 1.6298528420925024E9, 2021-08-24 18:54:02.092
62.0, -2431065.9375, -3102955.6875, -3454171.125, -4500000.375, -4500000.375, -3290516.625, -3028199.25, -3453903.75, -4500000.375, -4500000.375, -4500000.375, -4500000.375, -4500000.375, -4500000.375, -4500000.375, -4500000.375, 0.0, 0.0, 0.0, 196.0, 0.0, 0.0, 0.0, 21.0, 108.0, 181.0, 0.0, 0.0, 0.0, 1.6298528420925093E9, 2021-08-24 18:54:02.092
64.0, -2433778.6875, -3106242.375, -3454520.625, -4500000.375, -4500000.375, -3293052.375, -3035759.25, -3453644.625, -4500000.375, -4500000.375, -4500000.375, -4500000.375, -4500000.375, -4500000.375, -4500000.375, -4500000.375, 0.0, 0.0, 0.0, 196.0, 0.0, 0.0, 0.0, 21.0, 108.0, 189.0, 0.0, 0.0, 0.0, 1.629852842092516E9, 2021-08-24 18:54:02.092
66.0, -2431996.6875, -3103897.5, -3454247.25, -4500000.375, -4500000.375, -3290899.125, -3028996.875, -3453645.375, -4500000.375, -4500000.375, -4500000.375, -4500000.375, -4500000.375, -4500000.375, -4500000.375, -4500000.375, 0.0, 0.0, 0.0, 196.0, 1.0, 48.0, 0.0, 21.0, 108.0, 197.0, 0.0, 0.0, 0.0, 1.6298528420925229E9, 2021-08-24 18:54:02.092
68.0, -2432560.5, -3105569.625, -3454628.625, -4500000.375, -4500000.375, -3292859.625, -3035045.25, -3453604.125, -4500000.375, -4500000.375, -4500000.375, -4500000.375, -4500000.375, -4500000.375, -4500000.375, -4500000.375, 0.0, 0.0, 0.0, 196.0, 19.5, 144.0, 0.0, 21.0, 108.0, 205.0, 0.0, 0.0, 0.0, 1.629852842092532E9, 2021-08-24 18:54:02.092
70.0, -2433043.3125, -3104967.1875, -3454431.75, -4500000.375, -4500000.375, -3291343.875, -3029940.5625, -3453590.625, -4500000.375, -4500000.375, -4500000.375, -4500000.375, -4500000.375, -4500000.375, -4500000.375, -4500000.375, 0.0, 0.0, 0.0, 196.0, 0.0, 0.0, 0.0, 21.0, 108.0, 213.0, 0.0, 0.0, 0.0, 1.6298528420925388E9, 2021-08-24 18:54:02.092
72.0, -2431791.75, -3104430.1875, -3454509.0, -4500000.375, -4500000.375, -3292438.125, -3034054.5, -3453803.625, -4500000.375, -4500000.375, -4500000.375, -4500000.375, -4500000.375, -4500000.375, -4500000.375, -4500000.375, 0.0, 0.0, 0.0, 196.0, 0.0, 0.0, 0.0, 21.0, 108.0, 221.0, 0.0, 0.0, 0.0, 1.6298528420925455E9, 2021-08-24 18:54:02.092
74.0, -2434611.375, -3105600.1875, -3454221.375, -4500000.375, -4500000.375, -3291495.75, -3030583.6875, -3453807.375, -4500000.375, -4500000.375, -4500000.375, -4500000.375, -4500000.375, -4500000.375, -4500000.375, -4500000.375, 0.0, 0.0, 0.0, 196.0, 0.0, 0.0, 0.0, 21.0, 108.0, 229.0, 0.0, 0.0, 0.0, 1.6298528420925522E9, 2021-08-24 18:54:02.092
76.0, -2431500.375, -3103830.0, -3454989.75, -4500000.375, -4500000.375, -3292497.0, -3033456.9375, -3454809.375, -4500000.375, -4500000.375, -4500000.375, -4500000.375, -4500000.375, -4500000.375, -4500000.375, -4500000.375, 0.0, 0.0, 0.0, 196.0, 1.0, 56.0, 0.0, 21.0, 108.0, 237.0, 0.0, 0.0, 0.0, 1.629852842092559E9, 2021-08-24 18:54:02.092
78.0, -2436108.5625, -3107101.3125, -3454814.25, -4500000.375, -4500000.375, -3292408.125, -3032331.375, -3454551.375, -4500000.375, -4500000.375, -4500000.375, -4500000.375, -4500000.375, -4500000.375, -4500000.375, -4500000.375, 0.0, 0.0, 0.0, 196.0, 19.5, 152.0, 0.0, 21.0, 108.0, 245.0, 0.0, 0.0, 0.0, 1.6298528420925658E9, 2021-08-24 18:54:02.092
80.0, -2430363.1875, -3102878.4375, -3454543.5, -4500000.375, -4500000.375, -3291725.25, -3032088.9375, -3454227.375, -4500000.375, -4500000.375, -4500000.375, -4500000.375, -4500000.375, -4500000.375, -4500000.375, -4500000.375, 0.0, 0.0, 0.0, 196.0, 0.0, 0.0, 0.0, 21.0, 108.0, 253.0, 0.0, 0.0, 0.0, 1.6298528420925725E9, 2021-08-24 18:54:02.092
82.0, -2436454.5, -3107630.0625, -3454644.375, -4500000.375, -4500000.375, -3292692.75, -3033372.1875, -3453883.125, -4500000.375, -4500000.375, -4500000.375, -4500000.375, -4500000.375, -4500000.375, -4500000.375, -4500000.375, 0.0, 0.0, 0.0, 196.0, 0.0, 0.0, 0.0, 21.0, 109.0, 5.0, 0.0, 0.0, 0.0, 1.6298528420925791E9, 2021-08-24 18:54:02.092
84.0, -2429288.625, -3102281.25, -3454663.875, -4500000.375, -4500000.375, -3291382.875, -3030901.3125, -3454083.75, -4500000.375, -4500000.375, -4500000.375, -4500000.375, -4500000.375, -4500000.375, -4500000.375, -4500000.375, 0.0, 0.0, 0.0, 196.0, 0.0, 0.0, 0.0, 21.0, 109.0, 13.0, 0.0, 0.0, 0.0, 1.629852842092586E9, 2021-08-24 18:54:02.092
86.0, -2436781.125, -3108510.0, -3454961.625, -4500000.375, -4500000.375, -3293206.875, -3034543.6875, -3453734.25, -4500000.375, -4500000.375, -4500000.375, -4500000.375, -4500000.375, -4500000.375, -4500000.375, -4500000.375, 0.0, 0.0, 0.0, 196.0, 1.0, 48.0, 0.0, 21.0, 109.0, 21.0, 0.0, 0.0, 0.0, 1.6298528420925927E9, 2021-08-24 18:54:02.092
88.0, -2429046.1875, -3102378.375, -3455210.625, -4500000.375, -4500000.375, -3291556.875, -3030402.9375, -3454252.125, -4500000.375, -4500000.375, -4500000.375, -4500000.375, -4500000.375, -4500000.375, -4500000.375, -4500000.375, 0.0, 0.0, 0.0, 196.0, 19.5, 128.0, 0.0, 21.0, 109.0, 29.0, 0.0, 0.0, 0.0, 1.6298528420925996E9, 2021-08-24 18:54:02.092
90.0, -2437131.0, -3108973.3125, -3454959.0, -4500000.375, -4500000.375, -3293386.125, -3035318.25, -3453574.125, -4500000.375, -4500000.375, -4500000.375, -4500000.375, -4500000.375, -4500000.375, -4500000.375, -4500000.375, 0.0, 0.0, 0.0, 196.0, 0.0, 0.0, 0.0, 21.0, 109.0, 37.0, 0.0, 0.0, 0.0, 1.6298528420926063E9, 2021-08-24 18:54:02.092
92.0, -2428692.1875, -3101651.0625, -3454589.625, -4500000.375, -4500000.375, -3290533.125, -3028968.0, -3453805.875, -4500000.375, -4500000.375, -4500000.375, -4500000.375, -4500000.375, -4500000.375, -4500000.375, -4500000.375, 0.0, 0.0, 0.0, 196.0, 0.0, 0.0, 0.0, 21.0, 109.0, 45.0, 0.0, 0.0, 0.0, 1.6298528420926132E9, 2021-08-24 18:54:02.092
94.0, -2437673.25, -3109087.6875, -3455011.5, -4500000.375, -4500000.375, -3293534.625, -3036114.9375, -3454111.125, -4500000.375, -4500000.375, -4500000.375, -4500000.375, -4500000.375, -4500000.375, -4500000.375, -4500000.375, 0.0, 0.0, 0.0, 196.0, 0.0, 0.0, 0.0, 21.0, 109.0, 53.0, 0.0, 0.0, 0.0, 1.62985284209262E9, 2021-08-24 18:54:02.092
96.0, -2429668.5, -3101639.25, -3454728.0, -4500000.375, -4500000.375, -3290631.375, -3028628.8125, -3454927.5, -4500000.375, -4500000.375, -4500000.375, -4500000.375, -4500000.375, -4500000.375, -4500000.375, -4500000.375, 0.0, 0.0, 0.0, 196.0, 1.0, 64.0, 0.0, 21.0, 109.0, 61.0, 0.0, 0.0, 0.0, 1.6298528420926266E9, 2021-08-24 18:54:02.092
98.0, -2437845.9375, -3108888.5625, -3454852.875, -4500000.375, -4500000.375, -3293674.125, -3036611.625, -3454612.125, -4500000.375, -4500000.375, -4500000.375, -4500000.375, -4500000.375, -4500000.375, -4500000.375, -4500000.375, 0.0, 0.0, 0.0, 196.0, 19.5, 152.0, 0.0, 21.0, 109.0, 69.0, 0.0, 0.0, 0.0, 1.6298528420926335E9, 2021-08-24 18:54:02.092
100.0, -2429728.125, -3101699.25, -3454393.5, -4500000.375, -4500000.375, -3290348.25, -3028045.875, -3454461.75, -4500000.375, -4500000.375, -4500000.375, -4500000.375, -4500000.375, -4500000.375, -4500000.375, -4500000.375, 0.0, 0.0, 0.0, 196.0, 0.0, 0.0, 0.0, 21.0, 109.0, 77.0, 0.0, 0.0, 0.0, 1.62985284209264E9, 2021-08-24 18:54:02.092
102.0, -2436635.25, -3108624.1875, -3454846.875, -4500000.375, -4500000.375, -3293686.875, -3036979.125, -3453963.0, -4500000.375, -4500000.375, -4500000.375, -4500000.375, -4500000.375, -4500000.375, -4500000.375, -4500000.375, 0.0, 0.0, 0.0, 196.0, 0.0, 0.0, 0.0, 21.0, 109.0, 85.0, 0.0, 0.0, 0.0, 1.6298528420926485E9, 2021-08-24 18:54:02.092
104.0, -2429715.1875, -3102420.75, -3454690.875, -4500000.375, -4500000.375, -3290691.375, -3028494.75, -3453850.125, -4500000.375, -4500000.375, -4500000.375, -4500000.375, -4500000.375, -4500000.375, -4500000.375, -4500000.375, 0.0, 0.0, 0.0, 196.0, 0.0, 0.0, 0.0, 21.0, 109.0, 93.0, 0.0, 0.0, 0.0, 1.629852842092656E9, 2021-08-24 18:54:02.092
106.0, -2435507.0625, -3108194.4375, -3454926.375, -4500000.375, -4500000.375, -3293737.5, -3037164.1875, -3453619.5, -4500000.375, -4500000.375, -4500000.375, -4500000.375, -4500000.375, -4500000.375, -4500000.375, -4500000.375, 0.0, 0.0, 0.0, 196.0, 1.0, 80.0, 0.0, 21.0, 109.0, 101.0, 0.0, 0.0, 0.0, 1.6298528420926633E9, 2021-08-24 18:54:02.092
108.0, -2430474.1875, -3102913.6875, -3454406.625, -4500000.375, -4500000.375, -3290704.5, -3028699.6875, -3453899.625, -4500000.375, -4500000.375, -4500000.375, -4500000.375, -4500000.375, -4500000.375, -4500000.375, -4500000.375, 0.0, 0.0, 0.0, 196.0, 20.0, 64.0, 0.0, 21.0, 109.0, 109.0, 0.0, 0.0, 0.0, 1.6298528420926702E9, 2021-08-24 18:54:02.092
110.0, -2434781.8125, -3107441.8125, -3454794.75, -4500000.375, -4500000.375, -3293544.75, -3036842.4375, -3453858.75, -4500000.375, -4500000.375, -4500000.375, -4500000.375, -4500000.375, -4500000.375, -4500000.375, -4500000.375, 0.0, 0.0, 0.0, 196.0, 0.0, 0.0, 0.0, 21.0, 109.0, 117.0, 0.0, 0.0, 0.0, 1.6298528420926769E9, 2021-08-24 18:54:02.092
112.0, -2431525.125, -3103517.8125, -3454137.375, -4500000.375, -4500000.375, -3290536.875, -3028711.5, -3453656.25, -4500000.375, -4500000.375, -4500000.375, -4500000.375, -4500000.375, -4500000.375, -4500000.375, -4500000.375, 0.0, 0.0, 0.0, 196.0, 0.0, 0.0, 0.0, 21.0, 109.0, 125.0, 0.0, 0.0, 0.0, 1.6298528420926838E9, 2021-08-24 18:54:02.092
114.0, -2434242.1875, -3106553.0625, -3454843.125, -4500000.375, -4500000.375, -3293191.875, -3035969.0625, -3454370.25, -4500000.375, -4500000.375, -4500000.375, -4500000.375, -4500000.375, -4500000.375, -4500000.375, -4500000.375, 0.0, 0.0, 0.0, 196.0, 0.0, 0.0, 0.0, 21.0, 109.0, 133.0, 0.0, 0.0, 0.0, 1.6298528420926905E9, 2021-08-24 18:54:02.092
116.0, -2433121.5, -3104394.375, -3454177.5, -4500000.375, -4500000.375, -3290944.125, -3029420.625, -3454253.625, -4500000.375, -4500000.375, -4500000.375, -4500000.375, -4500000.375, -4500000.375, -4500000.375, -4500000.375, 0.0, 0.0, 0.0, 196.0, 1.0, 64.0, 0.0, 21.0, 109.0, 141.0, 0.0, 0.0, 0.0, 1.6298528420926971E9, 2021-08-24 18:54:02.092
118.0, -2433308.8125, -3105451.125, -3454517.625, -4500000.375, -4500000.375, -3292719.375, -3035127.375, -3454567.125, -4500000.375, -4500000.375, -4500000.375, -4500000.375, -4500000.375, -4500000.375, -4500000.375, -4500000.375, 0.0, 0.0, 0.0, 196.0, 20.0, 88.0, 0.0, 21.0, 109.0, 149.0, 0.0, 0.0, 0.0, 1.629852842092704E9, 2021-08-24 18:54:02.092
120.0, -2434292.625, -3105659.8125, -3454545.0, -4500000.375, -4500000.375, -3291506.25, -3030496.3125, -3454596.0, -4500000.375, -4500000.375, -4500000.375, -4500000.375, -4500000.375, -4500000.375, -4500000.375, -4500000.375, 0.0, 0.0, 0.0, 196.0, 0.0, 0.0, 0.0, 21.0, 109.0, 157.0, 0.0, 0.0, 0.0, 1.6298528425705419E9, 2021-08-24 18:54:02.570
122.0, -2432044.5, -3104615.4375, -3454534.875, -4500000.375, -4500000.375, -3292228.5, -3033978.375, -3454308.75, -4500000.375, -4500000.375, -4500000.375, -4500000.375, -4500000.375, -4500000.375, -4500000.375, -4500000.375, 0.0, 0.0, 0.0, 196.0, 0.0, 0.0, 0.0, 21.0, 109.0, 165.0, 0.0, 0.0, 0.0, 1.6298528425706904E9, 2021-08-24 18:54:02.570
124.0, -2435124.1875, -3106349.0625, -3454386.0, -4500000.375, -4500000.375, -3291680.25, -3031129.3125, -3454144.125, -4500000.375, -4500000.375, -4500000.375, -4500000.375, -4500000.375, -4500000.375, -4500000.375, -4500000.375, 0.0, 0.0, 0.0, 196.0, 0.0, 0.0, 0.0, 21.0, 109.0, 173.0, 0.0, 0.0, 0.0, 1.6298528425706992E9, 2021-08-24 18:54:02.570
126.0, -2430730.125, -3103942.6875, -3454882.875, -4500000.375, -4500000.375, -3292221.375, -3033188.0625, -3454134.75, -4500000.375, -4500000.375, -4500000.375, -4500000.375, -4500000.375, -4500000.375, -4500000.375, -4500000.375, 0.0, 0.0, 0.0, 196.0, 1.0, 32.0, 0.0, 21.0, 109.0, 181.0, 0.0, 0.0, 0.0, 1.629852842570706E9, 2021-08-24 18:54:02.570
128.0, -2435428.3125, -3107534.625, -3454711.875, -4500000.375, -4500000.375, -3292387.875, -3032702.0625, -3453610.5, -4500000.375, -4500000.375, -4500000.375, -4500000.375, -4500000.375, -4500000.375, -4500000.375, -4500000.375, 0.0, 0.0, 0.0, 196.0, 19.5, 192.0, 0.0, 21.0, 109.0, 189.0, 0.0, 0.0, 0.0, 1.6298528425707128E9, 2021-08-24 18:54:02.570
130.0, -2429525.8125, -3103223.25, -3454852.5, -4500000.375, -4500000.375, -3291794.25, -3032374.3125, -3453950.625, -4500000.375, -4500000.375, -4500000.375, -4500000.375, -4500000.375, -4500000.375, -4500000.375, -4500000.375, 0.0, 0.0, 0.0, 196.0, 0.0, 0.0, 0.0, 21.0, 109.0, 197.0, 0.0, 0.0, 0.0, 1.6298528425707197E9, 2021-08-24 18:54:02.570
132.0, -2436614.8125, -3108301.6875, -3454910.25, -4500000.375, -4500000.375, -3292975.5, -3034273.3125, -3454144.125, -4500000.375, -4500000.375, -4500000.375, -4500000.375, -4500000.375, -4500000.375, -4500000.375, -4500000.375, 0.0, 0.0, 0.0, 196.0, 0.0, 0.0, 0.0, 21.0, 109.0, 205.0, 0.0, 0.0, 0.0, 1.6298528425707264E9, 2021-08-24 18:54:02.570
134.0, -2429472.1875, -3102299.0625, -3454643.25, -4500000.375, -4500000.375, -3291327.0, -3031179.1875, -3454334.625, -4500000.375, -4500000.375, -4500000.375, -4500000.375, -4500000.375, -4500000.375, -4500000.375, -4500000.375, 0.0, 0.0, 0.0, 196.0, 0.0, 0.0, 0.0, 21.0, 109.0, 213.0, 0.0, 0.0, 0.0, 1.6298528425707333E9, 2021-08-24 18:54:02.570
136.0, -2437400.25, -3108362.4375, -3454555.125, -4500000.375, -4500000.375, -3293029.125, -3034929.9375, -3454285.875, -4500000.375, -4500000.375, -4500000.375, -4500000.375, -4500000.375, -4500000.375, -4500000.375, -4500000.375, 0.0, 0.0, 0.0, 196.0, 1.0, 0.0, 0.0, 21.0, 109.0, 221.0, 0.0, 0.0, 0.0, 1.62985284257074E9, 2021-08-24 18:54:02.570
138.0, -2429255.4375, -3101611.3125, -3454587.375, -4500000.375, -4500000.375, -3291039.75, -3029950.125, -3454744.125, -4500000.375, -4500000.375, -4500000.375, -4500000.375, -4500000.375, -4500000.375, -4500000.375, -4500000.375, 0.0, 0.0, 0.0, 196.0, 19.5, 192.0, 0.0, 21.0, 109.0, 229.0, 0.0, 0.0, 0.0, 1.629852842570752E9, 2021-08-24 18:54:02.570
140.0, -2437455.5625, -3108456.1875, -3454459.5, -4500000.375, -4500000.375, -3293177.25, -3035388.0, -3454099.875, -4500000.375, -4500000.375, -4500000.375, -4500000.375, -4500000.375, -4500000.375, -4500000.375, -4500000.375, 0.0, 0.0, 0.0, 196.0, 0.0, 0.0, 0.0, 21.0, 109.0, 237.0, 0.0, 0.0, 0.0, 1.6298528425707593E9, 2021-08-24 18:54:02.570
142.0, -2428863.9375, -3101368.3125, -3454476.375, -4500000.375, -4500000.375, -3290726.25, -3028868.625, -3454498.875, -4500000.375, -4500000.375, -4500000.375, -4500000.375, -4500000.375, -4500000.375, -4500000.375, -4500000.375, 0.0, 0.0, 0.0, 196.0, 0.0, 0.0, 0.0, 21.0, 109.0, 245.0, 0.0, 0.0, 0.0, 1.629852842570766E9, 2021-08-24 18:54:02.570
144.0, -2437264.5, -3108695.0625, -3454623.75, -4500000.375, -4500000.375, -3293629.125, -3036254.4375, -3454067.625, -4500000.375, -4500000.375, -4500000.375, -4500000.375, -4500000.375, -4500000.375, -4500000.375, -4500000.375, 0.0, 0.0, 0.0, 196.0, 0.0, 0.0, 0.0, 21.0, 109.0, 253.0, 0.0, 0.0, 0.0, 1.629852842570773E9, 2021-08-24 18:54:02.570
146.0, -2428675.5, -3101306.625, -3454263.75, -4500000.375, -4500000.375, -3290548.875, -3028355.25, -3454126.5, -4500000.375, -4500000.375, -4500000.375, -4500000.375, -4500000.375, -4500000.375, -4500000.375, -4500000.375, 0.0, 0.0, 0.0, 196.0, 1.0, 0.0, 0.0, 21.0, 110.0, 5.0, 0.0, 0.0, 0.0, 1.6298528425707796E9, 2021-08-24 18:54:02.570
148.0, -2436523.125, -3108473.4375, -3454602.75, -4500000.375, -4500000.375, -3293739.0, -3036765.1875, -3453873.75, -4500000.375, -4500000.375, -4500000.375, -4500000.375, -4500000.375, -4500000.375, -4500000.375, -4500000.375, 0.0, 0.0, 0.0, 196.0, 19.5, 152.0, 0.0, 21.0, 110.0, 13.0, 0.0, 0.0, 0.0, 1.6298528425707865E9, 2021-08-24 18:54:02.570
150.0, -2429084.8125, -3101625.1875, -3454374.0, -4500000.375, -4500000.375, -3290693.625, -3028382.625, -3454168.5, -4500000.375, -4500000.375, -4500000.375, -4500000.375, -4500000.375, -4500000.375, -4500000.375, -4500000.375, 0.0, 0.0, 0.0, 196.0, 0.0, 0.0, 0.0, 21.0, 110.0, 21.0, 0.0, 0.0, 0.0, 1.6298528425707932E9, 2021-08-24 18:54:02.570
152.0, -2436460.3125, -3108410.0625, -3454896.375, -4500000.375, -4500000.375, -3294105.375, -3037431.9375, -3454428.375, -4500000.375, -4500000.375, -4500000.375, -4500000.375, -4500000.375, -4500000.375, -4500000.375, -4500000.375, 0.0, 0.0, 0.0, 196.0, 0.0, 0.0, 0.0, 21.0, 110.0, 29.0, 0.0, 0.0, 0.0, 1.6298528425707998E9, 2021-08-24 18:54:02.570
154.0, -2430254.8125, -3101764.6875, -3453937.875, -4500000.375, -4500000.375, -3290419.125, -3028297.3125, -3454315.875, -4500000.375, -4500000.375, -4500000.375, -4500000.375, -4500000.375, -4500000.375, -4500000.375, -4500000.375, 0.0, 0.0, 0.0, 196.0, 0.0, 0.0, 0.0, 21.0, 110.0, 37.0, 0.0, 0.0, 0.0, 1.6298528425708065E9, 2021-08-24 18:54:02.570
156.0, -2436174.5625, -3107583.0, -3454801.875, -4500000.375, -4500000.375, -3293831.625, -3037245.1875, -3454793.25, -4500000.375, -4500000.375, -4500000.375, -4500000.375, -4500000.375, -4500000.375, -4500000.375, -4500000.375, 0.0, 0.0, 0.0, 196.0, 1.0, 8.0, 0.0, 21.0, 110.0, 45.0, 0.0, 0.0, 0.0, 1.6298528425708132E9, 2021-08-24 18:54:02.570
158.0, -2431656.0, -3102801.5625, -3454363.125, -4500000.375, -4500000.375, -3290824.875, -3028695.9375, -3454750.5, -4500000.375, -4500000.375, -4500000.375, -4500000.375, -4500000.375, -4500000.375, -4500000.375, -4500000.375, 0.0, 0.0, 0.0, 196.0, 19.5, 144.0, 0.0, 21.0, 110.0, 53.0, 0.0, 0.0, 0.0, 1.62985284257082E9, 2021-08-24 18:54:02.570
160.0, -2435166.0, -3106816.875, -3454742.25, -4500000.375, -4500000.375, -3293523.375, -3036558.5625, -3454764.0, -4500000.375, -4500000.375, -4500000.375, -4500000.375, -4500000.375, -4500000.375, -4500000.375, -4500000.375, 0.0, 0.0, 0.0, 196.0, 0.0, 0.0, 0.0, 21.0, 110.0, 61.0, 0.0, 0.0, 0.0, 1.6298528425708268E9, 2021-08-24 18:54:02.570
162.0, -2432301.9375, -3103525.875, -3454271.25, -4500000.375, -4500000.375, -3290850.75, -3029008.6875, -3454524.0, -4500000.375, -4500000.375, -4500000.375, -4500000.375, -4500000.375, -4500000.375, -4500000.375, -4500000.375, 0.0, 0.0, 0.0, 196.0, 0.0, 0.0, 0.0, 21.0, 110.0, 69.0, 0.0, 0.0, 0.0, 1.6298528425708337E9, 2021-08-24 18:54:02.570
164.0, -2433792.75, -3106043.4375, -3454800.75, -4500000.375, -4500000.375, -3293155.875, -3035889.1875, -3454666.875, -4500000.375, -4500000.375, -4500000.375, -4500000.375, -4500000.375, -4500000.375, -4500000.375, -4500000.375, 0.0, 0.0, 0.0, 196.0, 0.0, 0.0, 0.0, 21.0, 110.0, 77.0, 0.0, 0.0, 0.0, 1.6298528425708404E9, 2021-08-24 18:54:02.570
166.0, -2433197.25, -3104690.4375, -3454630.875, -4500000.375, -4500000.375, -3291374.25, -3029897.0625, -3454213.875, -4500000.375, -4500000.375, -4500000.375, -4500000.375, -4500000.375, -4500000.375, -4500000.375, -4500000.375, 0.0, 0.0, 0.0, 196.0, 1.0, 32.0, 0.0, 21.0, 110.0, 85.0, 0.0, 0.0, 0.0, 1.6298528425708473E9, 2021-08-24 18:54:02.570
168.0, -2432150.625, -3104576.8125, -3454063.875, -4500000.375, -4500000.375, -3292134.0, -3034367.8125, -3453430.125, -4500000.375, -4500000.375, -4500000.375, -4500000.375, -4500000.375, -4500000.375, -4500000.375, -4500000.375, 0.0, 0.0, 0.0, 196.0, 19.5, 152.0, 0.0, 21.0, 110.0, 93.0, 0.0, 0.0, 0.0, 1.629852842570854E9, 2021-08-24 18:54:02.570
170.0, -2433963.1875, -3105239.25, -3454132.5, -4500000.375, -4500000.375, -3291208.125, -3030338.0625, -3453337.875, -4500000.375, -4500000.375, -4500000.375, -4500000.375, -4500000.375, -4500000.375, -4500000.375, -4500000.375, 0.0, 0.0, 0.0, 196.0, 0.0, 0.0, 0.0, 21.0, 110.0, 101.0, 0.0, 0.0, 0.0, 1.6298528425708609E9, 2021-08-24 18:54:02.570
172.0, -2431429.125, -3103879.875, -3454517.625, -4500000.375, -4500000.375, -3292106.25, -3033522.375, -3453831.375, -4500000.375, -4500000.375, -4500000.375, -4500000.375, -4500000.375, -4500000.375, -4500000.375, -4500000.375, 0.0, 0.0, 0.0, 196.0, 0.0, 0.0, 0.0, 21.0, 110.0, 109.0, 0.0, 0.0, 0.0, 1.62985284257087E9, 2021-08-24 18:54:02.570
174.0, -2435606.4375, -3106280.4375, -3454633.5, -4500000.375, -4500000.375, -3291973.125, -3031581.5625, -3454238.625, -4500000.375, -4500000.375, -4500000.375, -4500000.375, -4500000.375, -4500000.375, -4500000.375, -4500000.375, 0.0, 0.0, 0.0, 196.0, 0.0, 0.0, 0.0, 21.0, 110.0, 117.0, 0.0, 0.0, 0.0, 1.6298528425708768E9, 2021-08-24 18:54:02.570
176.0, -2431104.5625, -3102905.25, -3454750.5, -4500000.375, -4500000.375, -3291919.875, -3032490.1875, -3454697.25, -4500000.375, -4500000.375, -4500000.375, -4500000.375, -4500000.375, -4500000.375, -4500000.375, -4500000.375, 0.0, 0.0, 0.0, 196.0, 1.0, 64.0, 0.0, 21.0, 110.0, 125.0, 0.0, 0.0, 0.0, 1.6298528425708835E9, 2021-08-24 18:54:02.570
178.0, -2436805.875, -3106923.75, -3454845.75, -4500000.375, -4500000.375, -3292633.5, -3032780.4375, -3454639.5, -4500000.375, -4500000.375, -4500000.375, -4500000.375, -4500000.375, -4500000.375, -4500000.375, -4500000.375, 0.0, 0.0, 0.0, 196.0, 19.5, 216.0, 0.0, 21.0, 110.0, 133.0, 0.0, 0.0, 0.0, 1.6298528425708904E9, 2021-08-24 18:54:02.570
180.0, -2430247.3125, -3101920.875, -3454569.75, -4500000.375, -4500000.375, -3291411.375, -3031090.6875, -3454638.375, -4500000.375, -4500000.375, -4500000.375, -4500000.375, -4500000.375, -4500000.375, -4500000.375, -4500000.375, 0.0, 0.0, 0.0, 196.0, 0.0, 0.0, 0.0, 21.0, 110.0, 141.0, 0.0, 0.0, 0.0, 1.629852842570897E9, 2021-08-24 18:54:02.570
182.0, -2437031.25, -3107203.6875, -3454380.75, -4500000.375, -4500000.375, -3292426.5, -3033212.8125, -3453876.0, -4500000.375, -4500000.375, -4500000.375, -4500000.375, -4500000.375, -4500000.375, -4500000.375, -4500000.375, 0.0, 0.0, 0.0, 196.0, 0.0, 0.0, 0.0, 21.0, 110.0, 149.0, 0.0, 0.0, 0.0, 1.629852842570904E9, 2021-08-24 18:54:02.570
184.0, -2429284.875, -3101416.5, -3454703.25, -4500000.375, -4500000.375, -3291145.875, -3029966.25, -3454277.625, -4500000.375, -4500000.375, -4500000.375, -4500000.375, -4500000.375, -4500000.375, -4500000.375, -4500000.375, 0.0, 0.0, 0.0, 196.0, 0.0, 0.0, 0.0, 21.0, 110.0, 157.0, 0.0, 0.0, 0.0, 1.6298528425709107E9, 2021-08-24 18:54:02.570
186.0, -2437083.1875, -3108081.375, -3454764.375, -4500000.375, -4500000.375, -3293141.25, -3034631.625, -3453824.625, -4500000.375, -4500000.375, -4500000.375, -4500000.375, -4500000.375, -4500000.375, -4500000.375, -4500000.375, 0.0, 0.0, 0.0, 196.0, 1.0, 80.0, 0.0, 21.0, 110.0, 165.0, 0.0, 0.0, 0.0, 1.6298528425709174E9, 2021-08-24 18:54:02.570
188.0, -2428497.0, -3101310.9375, -3454742.25, -4500000.375, -4500000.375, -3290860.5, -3029203.875, -3454114.125, -4500000.375, -4500000.375, -4500000.375, -4500000.375, -4500000.375, -4500000.375, -4500000.375, -4500000.375, 0.0, 0.0, 0.0, 196.0, 19.5, 232.0, 0.0, 21.0, 110.0, 173.0, 0.0, 0.0, 0.0, 1.6298528425709243E9, 2021-08-24 18:54:02.570
190.0, -2437493.0625, -3108689.625, -3455033.625, -4500000.375, -4500000.375, -3293444.625, -3035564.0625, -3454314.75, -4500000.375, -4500000.375, -4500000.375, -4500000.375, -4500000.375, -4500000.375, -4500000.375, -4500000.375, 0.0, 0.0, 0.0, 196.0, 0.0, 0.0, 0.0, 21.0, 110.0, 181.0, 0.0, 0.0, 0.0, 1.6298528425709307E9, 2021-08-24 18:54:02.570
192.0, -2428966.875, -3101049.0, -3454390.875, -4500000.375, -4500000.375, -3290222.25, -3028192.3125, -3454415.25, -4500000.375, -4500000.375, -4500000.375, -4500000.375, -4500000.375, -4500000.375, -4500000.375, -4500000.375, 0.0, 0.0, 0.0, 196.0, 0.0, 0.0, 0.0, 21.0, 110.0, 189.0, 0.0, 0.0, 0.0, 1.6298528425709376E9, 2021-08-24 18:54:02.570
194.0, -2437311.75, -3108006.75, -3454230.0, -4500000.375, -4500000.375, -3292829.625, -3035404.6875, -3453783.75, -4500000.375, -4500000.375, -4500000.375, -4500000.375, -4500000.375, -4500000.375, -4500000.375, -4500000.375, 0.0, 0.0, 0.0, 196.0, 0.0, 0.0, 0.0, 21.0, 110.0, 197.0, 0.0, 0.0, 0.0, 1.6298528425709443E9, 2021-08-24 18:54:02.570
196.0, -2429368.125, -3101014.6875, -3454298.25, -4500000.375, -4500000.375, -3290064.0, -3027692.25, -3454413.375, -4500000.375, -4500000.375, -4500000.375, -4500000.375, -4500000.375, -4500000.375, -4500000.375, -4500000.375, 0.0, 0.0, 0.0, 196.0, 1.0, 56.0, 0.0, 21.0, 110.0, 205.0, 0.0, 0.0, 0.0, 1.6298528425709512E9, 2021-08-24 18:54:02.570
198.0, -2437027.875, -3107940.1875, -3454441.5, -4500000.375, -4500000.375, -3293256.75, -3036054.9375, -3454104.375, -4500000.375, -4500000.375, -4500000.375, -4500000.375, -4500000.375, -4500000.375, -4500000.375, -4500000.375, 0.0, 0.0, 0.0, 196.0, 19.5, 208.0, 0.0, 21.0, 110.0, 213.0, 0.0, 0.0, 0.0, 1.629852842570958E9, 2021-08-24 18:54:02.570
200.0, -2429757.0, -3101321.625, -3454360.5, -4500000.375, -4500000.375, -3290169.0, -3027596.25, -3454165.125, -4500000.375, -4500000.375, -4500000.375, -4500000.375, -4500000.375, -4500000.375, -4500000.375, -4500000.375, 0.0, 0.0, 0.0, 196.0, 0.0, 0.0, 0.0, 21.0, 110.0, 221.0, 0.0, 0.0, 0.0, 1.6298528425709648E9, 2021-08-24 18:54:02.570
202.0, -2436431.4375, -3107712.1875, -3454871.25, -4500000.375, -4500000.375, -3293447.625, -3036332.8125, -3454091.25, -4500000.375, -4500000.375, -4500000.375, -4500000.375, -4500000.375, -4500000.375, -4500000.375, -4500000.375, 0.0, 0.0, 0.0, 196.0, 0.0, 0.0, 0.0, 21.0, 110.0, 229.0, 0.0, 0.0, 0.0, 1.6298528425709715E9, 2021-08-24 18:54:02.570
204.0, -2430436.6875, -3102029.25, -3454451.25, -4500000.375, -4500000.375, -3290280.0, -3027737.25, -3454161.375, -4500000.375, -4500000.375, -4500000.375, -4500000.375, -4500000.375, -4500000.375, -4500000.375, -4500000.375, 0.0, 0.0, 0.0, 196.0, 0.0, 0.0, 0.0, 21.0, 110.0, 237.0, 0.0, 0.0, 0.0, 1.6298528425709784E9, 2021-08-24 18:54:02.570
206.0, -2435312.4375, -3107154.9375, -3454762.125, -4500000.375, -4500000.375, -3293365.5, -3036197.0625, -3454080.0, -4500000.375, -4500000.375, -4500000.375, -4500000.375, -4500000.375, -4500000.375, -4500000.375, -4500000.375, 0.0, 0.0, 0.0, 196.0, 1.0, 56.0, 0.0, 21.0, 110.0, 245.0, 0.0, 0.0, 0.0, 1.6298528425709867E9, 2021-08-24 18:54:02.570
208.0, -2431112.625, -3102693.1875, -3454295.625, -4500000.375, -4500000.375, -3290503.125, -3028122.5625, -3454146.75, -4500000.375, -4500000.375, -4500000.375, -4500000.375, -4500000.375, -4500000.375, -4500000.375, -4500000.375, 0.0, 0.0, 0.0, 196.0, 19.5, 192.0, 0.0, 21.0, 110.0, 253.0, 0.0, 0.0, 0.0, 1.629852842570994E9, 2021-08-24 18:54:02.570
210.0, -2434166.625, -3106100.25, -3454367.25, -4500000.375, -4500000.375, -3292855.125, -3035552.25, -3453754.125, -4500000.375, -4500000.375, -4500000.375, -4500000.375, -4500000.375, -4500000.375, -4500000.375, -4500000.375, 0.0, 0.0, 0.0, 196.0, 0.0, 0.0, 0.0, 21.0, 111.0, 5.0, 0.0, 0.0, 0.0, 1.6298528425710003E9, 2021-08-24 18:54:02.571
212.0, -2432737.5, -3103696.875, -3454628.625, -4500000.375, -4500000.375, -3291093.375, -3029051.0625, -3454581.0, -4500000.375, -4500000.375, -4500000.375, -4500000.375, -4500000.375, -4500000.375, -4500000.375, -4500000.375, 0.0, 0.0, 0.0, 196.0, 0.0, 0.0, 0.0, 21.0, 111.0, 13.0, 0.0, 0.0, 0.0, 1.6298528425710073E9, 2021-08-24 18:54:02.571
214.0, -2433777.5625, -3105522.5625, -3454790.625, -4500000.375, -4500000.375, -3292945.125, -3035248.5, -3454573.5, -4500000.375, -4500000.375, -4500000.375, -4500000.375, -4500000.375, -4500000.375, -4500000.375, -4500000.375, 0.0, 0.0, 0.0, 196.0, 0.0, 0.0, 0.0, 21.0, 111.0, 21.0, 0.0, 0.0, 0.0, 1.629852842571014E9, 2021-08-24 18:54:02.571
216.0, -2433756.75, -3104399.25, -3454197.75, -4500000.375, -4500000.375, -3290896.875, -3029431.5, -3454092.375, -4500000.375, -4500000.375, -4500000.375, -4500000.375, -4500000.375, -4500000.375, -4500000.375, -4500000.375, 0.0, 0.0, 0.0, 196.0, 1.0, 48.0, 0.0, 21.0, 111.0, 29.0, 0.0, 0.0, 0.0, 1.6298528425710208E9, 2021-08-24 18:54:02.571
218.0, -2432550.75, -3104492.0625, -3454543.5, -4500000.375, -4500000.375, -3292409.625, -3034030.3125, -3454369.125, -4500000.375, -4500000.375, -4500000.375, -4500000.375, -4500000.375, -4500000.375, -4500000.375, -4500000.375, 0.0, 0.0, 0.0, 196.0, 19.5, 168.0, 0.0, 21.0, 111.0, 37.0, 0.0, 0.0, 0.0, 1.6298528425710275E9, 2021-08-24 18:54:02.571
220.0, -2434754.0625, -3105645.375, -3454409.625, -4500000.375, -4500000.375, -3291616.125, -3030627.1875, -3454181.625, -4500000.375, -4500000.375, -4500000.375, -4500000.375, -4500000.375, -4500000.375, -4500000.375, -4500000.375, 0.0, 0.0, 0.0, 196.0, 0.0, 0.0, 0.0, 21.0, 111.0, 45.0, 0.0, 0.0, 0.0, 1.6298528425710344E9, 2021-08-24 18:54:02.571
222.0, -2431107.1875, -3103569.75, -3454407.0, -4500000.375, -4500000.375, -3291974.625, -3033080.25, -3454035.75, -4500000.375, -4500000.375, -4500000.375, -4500000.375, -4500000.375, -4500000.375, -4500000.375, -4500000.375, 0.0, 0.0, 0.0, 196.0, 0.0, 0.0, 0.0, 21.0, 111.0, 53.0, 0.0, 0.0, 0.0, 1.629852842571041E9, 2021-08-24 18:54:02.571
224.0, -2435252.8125, -3106331.4375, -3454173.375, -4500000.375, -4500000.375, -3291682.125, -3031477.3125, -3453569.25, -4500000.375, -4500000.375, -4500000.375, -4500000.375, -4500000.375, -4500000.375, -4500000.375, -4500000.375, 0.0, 0.0, 0.0, 196.0, 0.0, 0.0, 0.0, 21.0, 111.0, 61.0, 0.0, 0.0, 0.0, 1.6298528425710478E9, 2021-08-24 18:54:02.571
226.0, -2430193.125, -3103066.125, -3454674.375, -4500000.375, -4500000.375, -3291813.0, -3032341.125, -3454210.125, -4500000.375, -4500000.375, -4500000.375, -4500000.375, -4500000.375, -4500000.375, -4500000.375, -4500000.375, 0.0, 0.0, 0.0, 196.0, 1.0, 80.0, 0.0, 21.0, 111.0, 69.0, 0.0, 0.0, 0.0, 1.6298528425710545E9, 2021-08-24 18:54:02.571
228.0, -2436275.25, -3107468.625, -3454538.625, -4500000.375, -4500000.375, -3292468.125, -3033032.0625, -3453922.5, -4500000.375, -4500000.375, -4500000.375, -4500000.375, -4500000.375, -4500000.375, -4500000.375, -4500000.375, 0.0, 0.0, 0.0, 196.0, 20.0, 72.0, 0.0, 21.0, 111.0, 77.0, 0.0, 0.0, 0.0, 1.6298528425710611E9, 2021-08-24 18:54:02.571
230.0, -2429682.9375, -3102426.75, -3454672.5, -4500000.375, -4500000.375, -3291493.875, -3031107.75, -3454549.125, -4500000.375, -4500000.375, -4500000.375, -4500000.375, -4500000.375, -4500000.375, -4500000.375, -4500000.375, 0.0, 0.0, 0.0, 196.0, 0.0, 0.0, 0.0, 21.0, 111.0, 85.0, 0.0, 0.0, 0.0, 1.629852842571068E9, 2021-08-24 18:54:02.571
232.0, -2437361.0625, -3108359.25, -3454830.375, -4500000.375, -4500000.375, -3293205.375, -3034248.1875, -3454542.375, -4500000.375, -4500000.375, -4500000.375, -4500000.375, -4500000.375, -4500000.375, -4500000.375, -4500000.375, 0.0, 0.0, 0.0, 196.0, 0.0, 0.0, 0.0, 21.0, 111.0, 93.0, 0.0, 0.0, 0.0, 1.6298528425710747E9, 2021-08-24 18:54:02.571
234.0, -2429474.8125, -3101840.8125, -3454606.125, -4500000.375, -4500000.375, -3291306.75, -3030178.6875, -3454522.5, -4500000.375, -4500000.375, -4500000.375, -4500000.375, -4500000.375, -4500000.375, -4500000.375, -4500000.375, 0.0, 0.0, 0.0, 196.0, 0.0, 0.0, 0.0, 21.0, 111.0, 101.0, 0.0, 0.0, 0.0, 1.6298528425710816E9, 2021-08-24 18:54:02.571
236.0, -2437774.125, -3108753.0, -3454857.0, -4500000.375, -4500000.375, -3293589.375, -3035338.125, -3454278.375, -4500000.375, -4500000.375, -4500000.375, -4500000.375, -4500000.375, -4500000.375, -4500000.375, -4500000.375, 0.0, 0.0, 0.0, 196.0, 1.0, 64.0, 0.0, 21.0, 111.0, 109.0, 0.0, 0.0, 0.0, 1.6298528425710883E9, 2021-08-24 18:54:02.571
238.0, -2429055.375, -3101523.75, -3454354.5, -4500000.375, -4500000.375, -3290965.5, -3028879.5, -3454339.5, -4500000.375, -4500000.375, -4500000.375, -4500000.375, -4500000.375, -4500000.375, -4500000.375, -4500000.375, 0.0, 0.0, 0.0, 196.0, 19.5, 176.0, 0.0, 21.0, 111.0, 117.0, 0.0, 0.0, 0.0, 1.6298528425710952E9, 2021-08-24 18:54:02.571
240.0, -2437687.6875, -3108928.3125, -3454726.125, -4500000.375, -4500000.375, -3293771.25, -3035246.4375, -3454049.25, -4500000.375, -4500000.375, -4500000.375, -4500000.375, -4500000.375, -4500000.375, -4500000.375, -4500000.375, 0.0, 0.0, 0.0, 196.0, 0.0, 0.0, 0.0, 21.0, 111.0, 125.0, 0.0, 0.0, 0.0, 1.6298528430518017E9, 2021-08-24 18:54:03.051
242.0, -2428926.0, -3101645.0625, -3454375.5, -4500000.375, -4500000.375, -3290597.625, -3027641.25, -3454112.625, -4500000.375, -4500000.375, -4500000.375, -4500000.375, -4500000.375, -4500000.375, -4500000.375, -4500000.375, 0.0, 0.0, 0.0, 196.0, 0.0, 0.0, 0.0, 21.0, 111.0, 133.0, 0.0, 0.0, 0.0, 1.6298528430520263E9, 2021-08-24 18:54:03.052
244.0, -2437288.6875, -3109110.1875, -3454844.25, -4500000.375, -4500000.375, -3294005.25, -3035795.8125, -3454040.25, -4500000.375, -4500000.375, -4500000.375, -4500000.375, -4500000.375, -4500000.375, -4500000.375, -4500000.375, 0.0, 0.0, 0.0, 196.0, 0.0, 0.0, 0.0, 21.0, 111.0, 141.0, 0.0, 0.0, 0.0, 1.6298528430520327E9, 2021-08-24 18:54:03.052
246.0, -2429271.0, -3101831.8125, -3454405.5, -4500000.375, -4500000.375, -3290888.25, -3027479.8125, -3454227.375, -4500000.375, -4500000.375, -4500000.375, -4500000.375, -4500000.375, -4500000.375, -4500000.375, -4500000.375, 0.0, 0.0, 0.0, 196.0, 1.0, 48.0, 0.0, 21.0, 111.0, 149.0, 0.0, 0.0, 0.0, 1.6298528430520403E9, 2021-08-24 18:54:03.052
248.0, -2436858.9375, -3108735.1875, -3454856.625, -4500000.375, -4500000.375, -3294275.625, -3036101.0625, -3454189.875, -4500000.375, -4500000.375, -4500000.375, -4500000.375, -4500000.375, -4500000.375, -4500000.375, -4500000.375, 0.0, 0.0, 0.0, 196.0, 19.5, 176.0, 0.0, 21.0, 111.0, 157.0, 0.0, 0.0, 0.0, 1.629852843052047E9, 2021-08-24 18:54:03.052
250.0, -2430018.75, -3102027.5625, -3454390.5, -4500000.375, -4500000.375, -3291023.625, -3027241.125, -3454332.0, -4500000.375, -4500000.375, -4500000.375, -4500000.375, -4500000.375, -4500000.375, -4500000.375, -4500000.375, 0.0, 0.0, 0.0, 196.0, 0.0, 0.0, 0.0, 21.0, 111.0, 165.0, 0.0, 0.0, 0.0, 1.6298528430520537E9, 2021-08-24 18:54:03.052
252.0, -2436699.5625, -3108499.6875, -3455308.125, -4500000.375, -4500000.375, -3294693.75, -3036340.3125, -3454678.125, -4500000.375, -4500000.375, -4500000.375, -4500000.375, -4500000.375, -4500000.375, -4500000.375, -4500000.375, 0.0, 0.0, 0.0, 196.0, 0.0, 0.0, 0.0, 21.0, 111.0, 173.0, 0.0, 0.0, 0.0, 1.6298528430520618E9, 2021-08-24 18:54:03.052
254.0, -2431270.875, -3103024.3125, -3454900.5, -4500000.375, -4500000.375, -3291586.875, -3027854.25, -3454785.375, -4500000.375, -4500000.375, -4500000.375, -4500000.375, -4500000.375, -4500000.375, -4500000.375, -4500000.375, 0.0, 0.0, 0.0, 196.0, 0.0, 0.0, 0.0, 21.0, 111.0, 181.0, 0.0, 0.0, 0.0, 1.6298528430520685E9, 2021-08-24 18:54:03.052
0.0, -2435628.9375, -3107682.1875, -3455179.125, -4500000.375, -4500000.375, -3294335.625, -3035876.25, -3454581.0, -4500000.375, -4500000.375, -4500000.375, -4500000.375, -4500000.375, -4500000.375, -4500000.375, -4500000.375, 0.0, 0.0, 0.0, 196.0, 0.0, 0.0, 0.0, 21.0, 111.0, 189.0, 0.0, 0.0, 0.0, 1.6298528430520751E9, 2021-08-24 18:54:03.052
2.0, -2431996.125, -3103707.75, -3454791.75, -4500000.375, -4500000.375, -3291548.625, -3028029.1875, -3454354.125, -4500000.375, -4500000.375, -4500000.375, -4500000.375, -4500000.375, -4500000.375, -4500000.375, -4500000.375, 0.0, 0.0, 0.0, 196.0, 0.0, 0.0, 0.0, 21.0, 111.0, 197.0, 0.0, 0.0, 0.0, 1.6298528430520818E9, 2021-08-24 18:54:03.052
4.0, -2434132.6875, -3106546.5, -3454613.625, -4500000.375, -4500000.375, -3293477.25, -3034893.375, -3453620.625, -4500000.375, -4500000.375, -4500000.375, -4500000.375, -4500000.375, -4500000.375, -4500000.375, -4500000.375, 0.0, 0.0, 0.0, 196.0, 0.0, 0.0, 0.0, 21.0, 111.0, 205.0, 0.0, 0.0, 0.0, 1.6298528430520885E9, 2021-08-24 18:54:03.052
6.0, -2432850.1875, -3104627.625, -3454622.25, -4500000.375, -4500000.375, -3291567.375, -3028562.4375, -3453909.75, -4500000.375, -4500000.375, -4500000.375, -4500000.375, -4500000.375, -4500000.375, -4500000.375, -4500000.375, 0.0, 0.0, 0.0, 196.0, 1.0, 32.0, 0.0, 21.0, 111.0, 213.0, 0.0, 0.0, 0.0, 1.6298528430520947E9, 2021-08-24 18:54:03.052
8.0, -2433277.125, -3105984.375, -3454910.25, -4500000.375, -4500000.375, -3293468.625, -3034523.8125, -3454222.125, -4500000.375, -4500000.375, -4500000.375, -4500000.375, -4500000.375, -4500000.375, -4500000.375, -4500000.375, 0.0, 0.0, 0.0, 196.0, 19.5, 224.0, 0.0, 21.0, 111.0, 221.0, 0.0, 0.0, 0.0, 1.6298528430521016E9, 2021-08-24 18:54:03.052
10.0, -2434020.1875, -3105349.6875, -3454353.0, -4500000.375, -4500000.375, -3291776.625, -3029387.4375, -3454054.125, -4500000.375, -4500000.375, -4500000.375, -4500000.375, -4500000.375, -4500000.375, -4500000.375, -4500000.375, 0.0, 0.0, 0.0, 196.0, 0.0, 0.0, 0.0, 21.0, 111.0, 229.0, 0.0, 0.0, 0.0, 1.629852843052108E9, 2021-08-24 18:54:03.052
12.0, -2432553.9375, -3105079.875, -3454989.75, -4500000.375, -4500000.375, -3293391.75, -3033768.5625, -3454899.375, -4500000.375, -4500000.375, -4500000.375, -4500000.375, -4500000.375, -4500000.375, -4500000.375, -4500000.375, 0.0, 0.0, 0.0, 196.0, 0.0, 0.0, 0.0, 21.0, 111.0, 237.0, 0.0, 0.0, 0.0, 1.6298528430521147E9, 2021-08-24 18:54:03.052
14.0, -2435322.0, -3106382.4375, -3454564.875, -4500000.375, -4500000.375, -3292443.375, -3030492.0, -3454253.25, -4500000.375, -4500000.375, -4500000.375, -4500000.375, -4500000.375, -4500000.375, -4500000.375, -4500000.375, 0.0, 0.0, 0.0, 196.0, 0.0, 0.0, 0.0, 21.0, 111.0, 245.0, 0.0, 0.0, 0.0, 1.6298528430521212E9, 2021-08-24 18:54:03.052
16.0, -2431395.9375, -3104171.625, -3455007.375, -4500000.375, -4500000.375, -3292981.125, -3032665.6875, -3454452.0, -4500000.375, -4500000.375, -4500000.375, -4500000.375, -4500000.375, -4500000.375, -4500000.375, -4500000.375, 0.0, 0.0, 0.0, 196.0, 1.0, 0.0, 0.0, 21.0, 111.0, 253.0, 0.0, 0.0, 0.0, 1.6298528430521278E9, 2021-08-24 18:54:03.052
18.0, -2436222.1875, -3107357.0625, -3454818.375, -4500000.375, -4500000.375, -3293124.75, -3031708.6875, -3454213.5, -4500000.375, -4500000.375, -4500000.375, -4500000.375, -4500000.375, -4500000.375, -4500000.375, -4500000.375, 0.0, 0.0, 0.0, 196.0, 20.0, 72.0, 0.0, 21.0, 112.0, 5.0, 0.0, 0.0, 0.0, 1.62985284305214E9, 2021-08-24 18:54:03.052
20.0, -2430460.875, -3103043.625, -3454885.5, -4500000.375, -4500000.375, -3292540.5, -3031329.9375, -3454347.375, -4500000.375, -4500000.375, -4500000.375, -4500000.375, -4500000.375, -4500000.375, -4500000.375, -4500000.375, 0.0, 0.0, 0.0, 196.0, 0.0, 0.0, 0.0, 21.0, 112.0, 13.0, 0.0, 0.0, 0.0, 1.629852843052147E9, 2021-08-24 18:54:03.052
22.0, -2437073.625, -3108007.875, -3454851.75, -4500000.375, -4500000.375, -3293472.0, -3032832.9375, -3454317.0, -4500000.375, -4500000.375, -4500000.375, -4500000.375, -4500000.375, -4500000.375, -4500000.375, -4500000.375, 0.0, 0.0, 0.0, 196.0, 0.0, 0.0, 0.0, 21.0, 112.0, 21.0, 0.0, 0.0, 0.0, 1.629852843052153E9, 2021-08-24 18:54:03.052
24.0, -2430044.625, -3102402.0, -3454650.0, -4500000.375, -4500000.375, -3292042.875, -3030177.5625, -3454777.875, -4500000.375, -4500000.375, -4500000.375, -4500000.375, -4500000.375, -4500000.375, -4500000.375, -4500000.375, 0.0, 0.0, 0.0, 196.0, 0.0, 0.0, 0.0, 21.0, 112.0, 29.0, 0.0, 0.0, 0.0, 1.62985284305216E9, 2021-08-24 18:54:03.052
26.0, -2437931.8125, -3108704.0625, -3454858.125, -4500000.375, -4500000.375, -3293857.125, -3033895.6875, -3454801.5, -4500000.375, -4500000.375, -4500000.375, -4500000.375, -4500000.375, -4500000.375, -4500000.375, -4500000.375, 0.0, 0.0, 0.0, 196.0, 0.5, 112.0, 0.0, 21.0, 112.0, 37.0, 0.0, 0.0, 0.0, 1.6298528430521665E9, 2021-08-24 18:54:03.052
28.0, -2429748.375, -3102036.75, -3454525.5, -4500000.375, -4500000.375, -3291558.75, -3029109.5625, -3454838.25, -4500000.375, -4500000.375, -4500000.375, -4500000.375, -4500000.375, -4500000.375, -4500000.375, -4500000.375, 0.0, 0.0, 0.0, 196.0, 19.5, 192.0, 0.0, 21.0, 112.0, 45.0, 0.0, 0.0, 0.0, 1.6298528430521731E9, 2021-08-24 18:54:03.052
30.0, -2437879.875, -3108781.3125, -3454435.125, -4500000.375, -4500000.375, -3293619.75, -3034390.875, -3454033.125, -4500000.375, -4500000.375, -4500000.375, -4500000.375, -4500000.375, -4500000.375, -4500000.375, -4500000.375, 0.0, 0.0, 0.0, 196.0, 0.0, 0.0, 0.0, 21.0, 112.0, 53.0, 0.0, 0.0, 0.0, 1.6298528430521796E9, 2021-08-24 18:54:03.052
32.0, -2429109.0, -3101547.9375, -3454277.25, -4500000.375, -4500000.375, -3291065.25, -3028032.375, -3454005.75, -4500000.375, -4500000.375, -4500000.375, -4500000.375, -4500000.375, -4500000.375, -4500000.375, -4500000.375, 0.0, 0.0, 0.0, 196.0, 0.0, 0.0, 0.0, 21.0, 112.0, 61.0, 0.0, 0.0, 0.0, 1.6298528430521865E9, 2021-08-24 18:54:03.052
34.0, -2437969.5, -3109280.8125, -3455029.875, -4500000.375, -4500000.375, -3294515.625, -3035664.375, -3454289.625, -4500000.375, -4500000.375, -4500000.375, -4500000.375, -4500000.375, -4500000.375, -4500000.375, -4500000.375, 0.0, 0.0, 0.0, 196.0, 0.0, 0.0, 0.0, 21.0, 112.0, 69.0, 0.0, 0.0, 0.0, 1.6298528430521927E9, 2021-08-24 18:54:03.052
36.0, -2429520.0, -3101673.5625, -3454442.625, -4500000.375, -4500000.375, -3291179.625, -3027787.3125, -3454293.75, -4500000.375, -4500000.375, -4500000.375, -4500000.375, -4500000.375, -4500000.375, -4500000.375, -4500000.375, 0.0, 0.0, 0.0, 196.0, 0.5, 104.0, 0.0, 21.0, 112.0, 77.0, 0.0, 0.0, 0.0, 1.6298528430521996E9, 2021-08-24 18:54:03.052
38.0, -2437666.3125, -3108851.625, -3454705.875, -4500000.375, -4500000.375, -3294274.875, -3035886.375, -3454473.0, -4500000.375, -4500000.375, -4500000.375, -4500000.375, -4500000.375, -4500000.375, -4500000.375, -4500000.375, 0.0, 0.0, 0.0, 196.0, 19.5, 152.0, 0.0, 21.0, 112.0, 85.0, 0.0, 0.0, 0.0, 1.629852843052206E9, 2021-08-24 18:54:03.052
40.0, -2429997.375, -3101736.75, -3454270.125, -4500000.375, -4500000.375, -3291029.25, -3027535.125, -3454812.75, -4500000.375, -4500000.375, -4500000.375, -4500000.375, -4500000.375, -4500000.375, -4500000.375, -4500000.375, 0.0, 0.0, 0.0, 196.0, 0.0, 0.0, 0.0, 21.0, 112.0, 93.0, 0.0, 0.0, 0.0, 1.6298528430522127E9, 2021-08-24 18:54:03.052
42.0, -2437194.75, -3108534.5625, -3454816.5, -4500000.375, -4500000.375, -3294323.25, -3036248.0625, -3454595.25, -4500000.375, -4500000.375, -4500000.375, -4500000.375, -4500000.375, -4500000.375, -4500000.375, -4500000.375, 0.0, 0.0, 0.0, 196.0, 0.0, 0.0, 0.0, 21.0, 112.0, 101.0, 0.0, 0.0, 0.0, 1.6298528430522192E9, 2021-08-24 18:54:03.052
44.0, -2430571.875, -3102317.25, -3454446.375, -4500000.375, -4500000.375, -3291141.0, -3027600.5625, -3454456.875, -4500000.375, -4500000.375, -4500000.375, -4500000.375, -4500000.375, -4500000.375, -4500000.375, -4500000.375, 0.0, 0.0, 0.0, 196.0, 0.0, 0.0, 0.0, 21.0, 112.0, 109.0, 0.0, 0.0, 0.0, 1.629852843052226E9, 2021-08-24 18:54:03.052
46.0, -2436445.875, -3108165.5625, -3454876.875, -4500000.375, -4500000.375, -3294434.625, -3036195.9375, -3454465.5, -4500000.375, -4500000.375, -4500000.375, -4500000.375, -4500000.375, -4500000.375, -4500000.375, -4500000.375, 0.0, 0.0, 0.0, 196.0, 0.5, 88.0, 0.0, 21.0, 112.0, 117.0, 0.0, 0.0, 0.0, 1.6298528430522325E9, 2021-08-24 18:54:03.052
48.0, -2431672.125, -3103076.8125, -3454467.0, -4500000.375, -4500000.375, -3291582.375, -3027873.0, -3454579.125, -4500000.375, -4500000.375, -4500000.375, -4500000.375, -4500000.375, -4500000.375, -4500000.375, -4500000.375, 0.0, 0.0, 0.0, 196.0, 19.5, 160.0, 0.0, 21.0, 112.0, 125.0, 0.0, 0.0, 0.0, 1.6298528430522392E9, 2021-08-24 18:54:03.052
50.0, -2435779.125, -3107504.625, -3454997.625, -4500000.375, -4500000.375, -3294484.5, -3035906.8125, -3454926.75, -4500000.375, -4500000.375, -4500000.375, -4500000.375, -4500000.375, -4500000.375, -4500000.375, -4500000.375, 0.0, 0.0, 0.0, 196.0, 0.0, 0.0, 0.0, 21.0, 112.0, 133.0, 0.0, 0.0, 0.0, 1.6298528430522456E9, 2021-08-24 18:54:03.052
52.0, -2432901.1875, -3104106.1875, -3454777.875, -4500000.375, -4500000.375, -3292015.875, -3028499.0625, -3455125.5, -4500000.375, -4500000.375, -4500000.375, -4500000.375, -4500000.375, -4500000.375, -4500000.375, -4500000.375, 0.0, 0.0, 0.0, 196.0, 0.0, 0.0, 0.0, 21.0, 112.0, 141.0, 0.0, 0.0, 0.0, 1.6298528430522542E9, 2021-08-24 18:54:03.052
54.0, -2434535.625, -3106406.0625, -3454695.75, -4500000.375, -4500000.375, -3293933.625, -3035205.75, -3454791.75, -4500000.375, -4500000.375, -4500000.375, -4500000.375, -4500000.375, -4500000.375, -4500000.375, -4500000.375, 0.0, 0.0, 0.0, 196.0, 0.0, 0.0, 0.0, 21.0, 112.0, 149.0, 0.0, 0.0, 0.0, 1.6298528430522609E9, 2021-08-24 18:54:03.052
56.0, -2433801.1875, -3104896.5, -3454543.5, -4500000.375, -4500000.375, -3292062.75, -3029193.75, -3454591.125, -4500000.375, -4500000.375, -4500000.375, -4500000.375, -4500000.375, -4500000.375, -4500000.375, -4500000.375, 0.0, 0.0, 0.0, 196.0, 0.5, 112.0, 0.0, 21.0, 112.0, 157.0, 0.0, 0.0, 0.0, 1.629852843052268E9, 2021-08-24 18:54:03.052
58.0, -2433355.5, -3105639.375, -3454629.0, -4500000.375, -4500000.375, -3293532.0, -3034441.3125, -3454450.5, -4500000.375, -4500000.375, -4500000.375, -4500000.375, -4500000.375, -4500000.375, -4500000.375, -4500000.375, 0.0, 0.0, 0.0, 196.0, 19.5, 176.0, 0.0, 21.0, 112.0, 165.0, 0.0, 0.0, 0.0, 1.6298528430522747E9, 2021-08-24 18:54:03.052
60.0, -2434746.9375, -3105714.5625, -3454338.0, -4500000.375, -4500000.375, -3292170.0, -3029862.75, -3454302.0, -4500000.375, -4500000.375, -4500000.375, -4500000.375, -4500000.375, -4500000.375, -4500000.375, -4500000.375, 0.0, 0.0, 0.0, 196.0, 0.0, 0.0, 0.0, 21.0, 112.0, 173.0, 0.0, 0.0, 0.0, 1.6298528430522811E9, 2021-08-24 18:54:03.052
62.0, -2432520.1875, -3104874.375, -3454825.875, -4500000.375, -4500000.375, -3293262.75, -3033617.8125, -3454843.875, -4500000.375, -4500000.375, -4500000.375, -4500000.375, -4500000.375, -4500000.375, -4500000.375, -4500000.375, 0.0, 0.0, 0.0, 196.0, 0.0, 0.0, 0.0, 21.0, 112.0, 181.0, 0.0, 0.0, 0.0, 1.6298528430522878E9, 2021-08-24 18:54:03.052
64.0, -2436058.6875, -3106970.25, -3454615.875, -4500000.375, -4500000.375, -3292824.375, -3031246.6875, -3454659.75, -4500000.375, -4500000.375, -4500000.375, -4500000.375, -4500000.375, -4500000.375, -4500000.375, -4500000.375, 0.0, 0.0, 0.0, 196.0, 0.0, 0.0, 0.0, 21.0, 112.0, 189.0, 0.0, 0.0, 0.0, 1.6298528430522945E9, 2021-08-24 18:54:03.052
66.0, -2431586.25, -3104036.4375, -3454740.375, -4500000.375, -4500000.375, -3293046.375, -3032539.5, -3454864.125, -4500000.375, -4500000.375, -4500000.375, -4500000.375, -4500000.375, -4500000.375, -4500000.375, -4500000.375, 0.0, 0.0, 0.0, 196.0, 0.5, 104.0, 0.0, 21.0, 112.0, 197.0, 0.0, 0.0, 0.0, 1.6298528430523014E9, 2021-08-24 18:54:03.052
68.0, -2436745.875, -3107937.5625, -3454581.375, -4500000.375, -4500000.375, -3293256.75, -3032295.9375, -3454447.5, -4500000.375, -4500000.375, -4500000.375, -4500000.375, -4500000.375, -4500000.375, -4500000.375, -4500000.375, 0.0, 0.0, 0.0, 196.0, 19.5, 200.0, 0.0, 21.0, 112.0, 205.0, 0.0, 0.0, 0.0, 1.629852843052308E9, 2021-08-24 18:54:03.052
70.0, -2430682.3125, -3103442.625, -3454741.875, -4500000.375, -4500000.375, -3292502.625, -3031323.9375, -3455001.375, -4500000.375, -4500000.375, -4500000.375, -4500000.375, -4500000.375, -4500000.375, -4500000.375, -4500000.375, 0.0, 0.0, 0.0, 196.0, 0.0, 0.0, 0.0, 21.0, 112.0, 213.0, 0.0, 0.0, 0.0, 1.6298528430523145E9, 2021-08-24 18:54:03.052
72.0, -2437799.8125, -3108953.625, -3454924.875, -4500000.375, -4500000.375, -3293735.25, -3033546.0, -3454981.125, -4500000.375, -4500000.375, -4500000.375, -4500000.375, -4500000.375, -4500000.375, -4500000.375, -4500000.375, 0.0, 0.0, 0.0, 196.0, 0.0, 0.0, 0.0, 21.0, 112.0, 221.0, 0.0, 0.0, 0.0, 1.6298528430523212E9, 2021-08-24 18:54:03.052
74.0, -2430250.5, -3102450.1875, -3454336.125, -4500000.375, -4500000.375, -3291774.0, -3029952.375, -3454760.625, -4500000.375, -4500000.375, -4500000.375, -4500000.375, -4500000.375, -4500000.375, -4500000.375, -4500000.375, 0.0, 0.0, 0.0, 196.0, 0.0, 0.0, 0.0, 21.0, 112.0, 229.0, 0.0, 0.0, 0.0, 1.629852843052328E9, 2021-08-24 18:54:03.052
76.0, -2438406.5625, -3109143.375, -3454776.0, -4500000.375, -4500000.375, -3293954.625, -3034369.3125, -3454680.75, -4500000.375, -4500000.375, -4500000.375, -4500000.375, -4500000.375, -4500000.375, -4500000.375, -4500000.375, 0.0, 0.0, 0.0, 196.0, 0.5, 104.0, 0.0, 21.0, 112.0, 237.0, 0.0, 0.0, 0.0, 1.6298528430523353E9, 2021-08-24 18:54:03.052
78.0, -2430129.375, -3102332.8125, -3454615.875, -4500000.375, -4500000.375, -3291741.375, -3029268.9375, -3454882.875, -4500000.375, -4500000.375, -4500000.375, -4500000.375, -4500000.375, -4500000.375, -4500000.375, -4500000.375, 0.0, 0.0, 0.0, 196.0, 19.5, 184.0, 0.0, 21.0, 112.0, 245.0, 0.0, 0.0, 0.0, 1.6298528430523417E9, 2021-08-24 18:54:03.052
80.0, -2438494.125, -3109778.625, -3455041.125, -4500000.375, -4500000.375, -3294397.875, -3035343.0, -3454471.875, -4500000.375, -4500000.375, -4500000.375, -4500000.375, -4500000.375, -4500000.375, -4500000.375, -4500000.375, 0.0, 0.0, 0.0, 196.0, 0.0, 0.0, 0.0, 21.0, 112.0, 253.0, 0.0, 0.0, 0.0, 1.6298528430523484E9, 2021-08-24 18:54:03.052
82.0, -2429743.6875, -3102480.9375, -3454792.875, -4500000.375, -4500000.375, -3291666.0, -3028829.0625, -3454657.5, -4500000.375, -4500000.375, -4500000.375, -4500000.375, -4500000.375, -4500000.375, -4500000.375, -4500000.375, 0.0, 0.0, 0.0, 196.0, 0.0, 0.0, 0.0, 21.0, 113.0, 5.0, 0.0, 0.0, 0.0, 1.6298528430523548E9, 2021-08-24 18:54:03.052
84.0, -2438220.375, -3109686.375, -3454792.125, -4500000.375, -4500000.375, -3294396.75, -3035994.1875, -3454462.5, -4500000.375, -4500000.375, -4500000.375, -4500000.375, -4500000.375, -4500000.375, -4500000.375, -4500000.375, 0.0, 0.0, 0.0, 196.0, 0.0, 0.0, 0.0, 21.0, 113.0, 13.0, 0.0, 0.0, 0.0, 1.6298528430523615E9, 2021-08-24 18:54:03.052
86.0, -2430020.4375, -3102430.875, -3454537.875, -4500000.375, -4500000.375, -3291435.0, -3028201.3125, -3454999.5, -4500000.375, -4500000.375, -4500000.375, -4500000.375, -4500000.375, -4500000.375, -4500000.375, -4500000.375, 0.0, 0.0, 0.0, 196.0, 0.5, 104.0, 0.0, 21.0, 113.0, 21.0, 0.0, 0.0, 0.0, 1.6298528430523698E9, 2021-08-24 18:54:03.052
88.0, -2437825.125, -3109449.1875, -3454635.0, -4500000.375, -4500000.375, -3294482.625, -3036312.9375, -3454694.25, -4500000.375, -4500000.375, -4500000.375, -4500000.375, -4500000.375, -4500000.375, -4500000.375, -4500000.375, 0.0, 0.0, 0.0, 196.0, 19.5, 184.0, 0.0, 21.0, 113.0, 29.0, 0.0, 0.0, 0.0, 1.6298528430523765E9, 2021-08-24 18:54:03.052
90.0, -2430290.25, -3102485.0625, -3454216.5, -4500000.375, -4500000.375, -3291171.0, -3027722.8125, -3454753.125, -4500000.375, -4500000.375, -4500000.375, -4500000.375, -4500000.375, -4500000.375, -4500000.375, -4500000.375, 0.0, 0.0, 0.0, 196.0, 0.0, 0.0, 0.0, 21.0, 113.0, 37.0, 0.0, 0.0, 0.0, 1.6298528430523827E9, 2021-08-24 18:54:03.052
92.0, -2437098.75, -3109268.4375, -3454861.5, -4500000.375, -4500000.375, -3294491.25, -3036517.875, -3454360.5, -4500000.375, -4500000.375, -4500000.375, -4500000.375, -4500000.375, -4500000.375, -4500000.375, -4500000.375, 0.0, 0.0, 0.0, 196.0, 0.0, 0.0, 0.0, 21.0, 113.0, 45.0, 0.0, 0.0, 0.0, 1.6298528430523896E9, 2021-08-24 18:54:03.052
94.0, -2430898.5, -3103105.3125, -3454435.875, -4500000.375, -4500000.375, -3291288.375, -3027885.375, -3454379.625, -4500000.375, -4500000.375, -4500000.375, -4500000.375, -4500000.375, -4500000.375, -4500000.375, -4500000.375, 0.0, 0.0, 0.0, 196.0, 0.0, 0.0, 0.0, 21.0, 113.0, 53.0, 0.0, 0.0, 0.0, 1.629852843052396E9, 2021-08-24 18:54:03.052
96.0, -2436293.0625, -3108512.0625, -3454926.0, -4500000.375, -4500000.375, -3294522.75, -3036476.4375, -3454572.75, -4500000.375, -4500000.375, -4500000.375, -4500000.375, -4500000.375, -4500000.375, -4500000.375, -4500000.375, 0.0, 0.0, 0.0, 196.0, 0.5, 96.0, 0.0, 21.0, 113.0, 61.0, 0.0, 0.0, 0.0, 1.6298528430524027E9, 2021-08-24 18:54:03.052
98.0, -2431916.25, -3103759.6875, -3454331.625, -4500000.375, -4500000.375, -3291373.125, -3027984.5625, -3454648.875, -4500000.375, -4500000.375, -4500000.375, -4500000.375, -4500000.375, -4500000.375, -4500000.375, -4500000.375, 0.0, 0.0, 0.0, 196.0, 19.5, 192.0, 0.0, 21.0, 113.0, 69.0, 0.0, 0.0, 0.0, 1.6298528430524092E9, 2021-08-24 18:54:03.052
100.0, -2435341.3125, -3107644.125, -3454774.125, -4500000.375, -4500000.375, -3294003.0, -3035629.5, -3454753.5, -4500000.375, -4500000.375, -4500000.375, -4500000.375, -4500000.375, -4500000.375, -4500000.375, -4500000.375, 0.0, 0.0, 0.0, 196.0, 0.0, 0.0, 0.0, 21.0, 113.0, 77.0, 0.0, 0.0, 0.0, 1.6298528430524158E9, 2021-08-24 18:54:03.052
102.0, -2432888.25, -3104578.875, -3454341.0, -4500000.375, -4500000.375, -3291507.375, -3028467.9375, -3454582.125, -4500000.375, -4500000.375, -4500000.375, -4500000.375, -4500000.375, -4500000.375, -4500000.375, -4500000.375, 0.0, 0.0, 0.0, 196.0, 0.0, 0.0, 0.0, 21.0, 113.0, 85.0, 0.0, 0.0, 0.0, 1.6298528430524223E9, 2021-08-24 18:54:03.052
104.0, -2434422.375, -3106911.375, -3455022.75, -4500000.375, -4500000.375, -3293939.625, -3035354.8125, -3454947.375, -4500000.375, -4500000.375, -4500000.375, -4500000.375, -4500000.375, -4500000.375, -4500000.375, -4500000.375, 0.0, 0.0, 0.0, 196.0, 0.0, 0.0, 0.0, 21.0, 113.0, 93.0, 0.0, 0.0, 0.0, 1.629852843532338E9, 2021-08-24 18:54:03.532
106.0, -2433830.8125, -3105433.5, -3454354.125, -4500000.375, -4500000.375, -3291690.75, -3029340.1875, -3454353.0, -4500000.375, -4500000.375, -4500000.375, -4500000.375, -4500000.375, -4500000.375, -4500000.375, -4500000.375, 0.0, 0.0, 0.0, 196.0, 0.5, 112.0, 0.0, 21.0, 113.0, 101.0, 0.0, 0.0, 0.0, 1.6298528435325265E9, 2021-08-24 18:54:03.532
108.0, -2433137.0625, -3105972.5625, -3454890.375, -4500000.375, -4500000.375, -3293299.5, -3034422.5625, -3454597.5, -4500000.375, -4500000.375, -4500000.375, -4500000.375, -4500000.375, -4500000.375, -4500000.375, -4500000.375, 0.0, 0.0, 0.0, 196.0, 19.5, 176.0, 0.0, 21.0, 113.0, 109.0, 0.0, 0.0, 0.0, 1.6298528435325336E9, 2021-08-24 18:54:03.532
110.0, -2435211.0, -3106775.625, -3454733.625, -4500000.375, -4500000.375, -3292209.75, -3030516.5625, -3454454.25, -4500000.375, -4500000.375, -4500000.375, -4500000.375, -4500000.375, -4500000.375, -4500000.375, -4500000.375, 0.0, 0.0, 0.0, 196.0, 0.0, 0.0, 0.0, 21.0, 113.0, 117.0, 0.0, 0.0, 0.0, 1.6298528435325408E9, 2021-08-24 18:54:03.532
112.0, -2432069.0625, -3104842.3125, -3454542.75, -4500000.375, -4500000.375, -3292476.375, -3032919.9375, -3454263.375, -4500000.375, -4500000.375, -4500000.375, -4500000.375, -4500000.375, -4500000.375, -4500000.375, -4500000.375, 0.0, 0.0, 0.0, 196.0, 0.0, 0.0, 0.0, 21.0, 113.0, 125.0, 0.0, 0.0, 0.0, 1.629852843532564E9, 2021-08-24 18:54:03.532
114.0, -2436120.75, -3107445.0, -3454436.625, -4500000.375, -4500000.375, -3292335.0, -3031212.375, -3454279.875, -4500000.375, -4500000.375, -4500000.375, -4500000.375, -4500000.375, -4500000.375, -4500000.375, -4500000.375, 0.0, 0.0, 0.0, 196.0, 0.0, 0.0, 0.0, 21.0, 113.0, 133.0, 0.0, 0.0, 0.0, 1.6298528435325708E9, 2021-08-24 18:54:03.532
116.0, -2431167.375, -3103992.0, -3454547.625, -4500000.375, -4500000.375, -3292285.875, -3031872.75, -3454713.375, -4500000.375, -4500000.375, -4500000.375, -4500000.375, -4500000.375, -4500000.375, -4500000.375, -4500000.375, 0.0, 0.0, 0.0, 196.0, 0.5, 96.0, 0.0, 21.0, 113.0, 141.0, 0.0, 0.0, 0.0, 1.6298528435325775E9, 2021-08-24 18:54:03.532
118.0, -2437021.5, -3108317.8125, -3454574.625, -4500000.375, -4500000.375, -3292909.125, -3032429.0625, -3454570.875, -4500000.375, -4500000.375, -4500000.375, -4500000.375, -4500000.375, -4500000.375, -4500000.375, -4500000.375, 0.0, 0.0, 0.0, 196.0, 19.5, 152.0, 0.0, 21.0, 113.0, 149.0, 0.0, 0.0, 0.0, 1.6298528435325844E9, 2021-08-24 18:54:03.532
120.0, -2430459.75, -3103255.5, -3454651.125, -4500000.375, -4500000.375, -3291994.125, -3030867.0, -3454800.375, -4500000.375, -4500000.375, -4500000.375, -4500000.375, -4500000.375, -4500000.375, -4500000.375, -4500000.375, 0.0, 0.0, 0.0, 196.0, 0.0, 0.0, 0.0, 21.0, 113.0, 157.0, 0.0, 0.0, 0.0, 1.6298528435325968E9, 2021-08-24 18:54:03.532
122.0, -2437816.5, -3108811.3125, -3454528.5, -4500000.375, -4500000.375, -3293234.25, -3033323.8125, -3454363.5, -4500000.375, -4500000.375, -4500000.375, -4500000.375, -4500000.375, -4500000.375, -4500000.375, -4500000.375, 0.0, 0.0, 0.0, 196.0, 0.0, 0.0, 0.0, 21.0, 113.0, 165.0, 0.0, 0.0, 0.0, 1.6298528435326035E9, 2021-08-24 18:54:03.532
124.0, -2430265.125, -3102731.8125, -3454620.75, -4500000.375, -4500000.375, -3291806.625, -3029898.75, -3454995.375, -4500000.375, -4500000.375, -4500000.375, -4500000.375, -4500000.375, -4500000.375, -4500000.375, -4500000.375, 0.0, 0.0, 0.0, 196.0, 0.0, 0.0, 0.0, 21.0, 113.0, 172.5, 0.0, 0.0, 0.0, 1.629852843532612E9, 2021-08-24 18:54:03.532
126.0, -2438400.1875, -3109443.375, -3454813.125, -4500000.375, -4500000.375, -3294009.375, -3034743.75, -3454694.25, -4500000.375, -4500000.375, -4500000.375, -4500000.375, -4500000.375, -4500000.375, -4500000.375, -4500000.375, 0.0, 0.0, 0.0, 196.0, 0.5, 104.0, 0.0, 21.0, 113.0, 180.0, 0.0, 0.0, 0.0, 1.6298528435326188E9, 2021-08-24 18:54:03.532
128.0, -2429888.4375, -3102420.1875, -3454636.125, -4500000.375, -4500000.375, -3291607.875, -3029147.0625, -3455139.375, -4500000.375, -4500000.375, -4500000.375, -4500000.375, -4500000.375, -4500000.375, -4500000.375, -4500000.375, 0.0, 0.0, 0.0, 196.0, 19.5, 176.0, 0.0, 21.0, 113.0, 188.0, 0.0, 0.0, 0.0, 1.6298528435326257E9, 2021-08-24 18:54:03.532
130.0, -2438374.875, -3109581.75, -3454641.375, -4500000.375, -4500000.375, -3294034.125, -3035377.875, -3454471.5, -4500000.375, -4500000.375, -4500000.375, -4500000.375, -4500000.375, -4500000.375, -4500000.375, -4500000.375, 0.0, 0.0, 0.0, 196.0, 0.0, 0.0, 0.0, 21.0, 113.0, 196.0, 0.0, 0.0, 0.0, 1.6298528435326324E9, 2021-08-24 18:54:03.532
132.0, -2429979.1875, -3102319.3125, -3454439.625, -4500000.375, -4500000.375, -3291105.0, -3028287.75, -3454733.625, -4500000.375, -4500000.375, -4500000.375, -4500000.375, -4500000.375, -4500000.375, -4500000.375, -4500000.375, 0.0, 0.0, 0.0, 196.0, 0.0, 0.0, 0.0, 21.0, 113.0, 204.0, 0.0, 0.0, 0.0, 1.6298528435326393E9, 2021-08-24 18:54:03.532
134.0, -2438348.625, -3109418.625, -3454321.125, -4500000.375, -4500000.375, -3293614.5, -3035572.6875, -3454065.375, -4500000.375, -4500000.375, -4500000.375, -4500000.375, -4500000.375, -4500000.375, -4500000.375, -4500000.375, 0.0, 0.0, 0.0, 196.0, 0.0, 0.0, 0.0, 21.0, 113.0, 212.0, 0.0, 0.0, 0.0, 1.629852843532646E9, 2021-08-24 18:54:03.532
136.0, -2430202.3125, -3102478.6875, -3454381.875, -4500000.375, -4500000.375, -3290836.125, -3027823.125, -3454707.375, -4500000.375, -4500000.375, -4500000.375, -4500000.375, -4500000.375, -4500000.375, -4500000.375, -4500000.375, 0.0, 0.0, 0.0, 196.0, 1.0, 8.0, 0.0, 21.0, 113.0, 220.0, 0.0, 0.0, 0.0, 1.6298528435326529E9, 2021-08-24 18:54:03.532
138.0, -2437887.9375, -3109517.4375, -3454705.5, -4500000.375, -4500000.375, -3294123.0, -3036377.25, -3454520.625, -4500000.375, -4500000.375, -4500000.375, -4500000.375, -4500000.375, -4500000.375, -4500000.375, -4500000.375, 0.0, 0.0, 0.0, 196.0, 19.5, 144.0, 0.0, 21.0, 113.0, 228.0, 0.0, 0.0, 0.0, 1.6298528435326595E9, 2021-08-24 18:54:03.532
140.0, -2430700.6875, -3102700.875, -3454164.75, -4500000.375, -4500000.375, -3290758.125, -3027603.75, -3454793.25, -4500000.375, -4500000.375, -4500000.375, -4500000.375, -4500000.375, -4500000.375, -4500000.375, -4500000.375, 0.0, 0.0, 0.0, 196.0, 0.0, 0.0, 0.0, 21.0, 113.0, 236.0, 0.0, 0.0, 0.0, 1.6298528435326664E9, 2021-08-24 18:54:03.532
142.0, -2437231.3125, -3108994.875, -3454648.875, -4500000.375, -4500000.375, -3293951.25, -3036275.25, -3454807.125, -4500000.375, -4500000.375, -4500000.375, -4500000.375, -4500000.375, -4500000.375, -4500000.375, -4500000.375, 0.0, 0.0, 0.0, 196.0, 0.0, 0.0, 0.0, 21.0, 113.0, 244.0, 0.0, 0.0, 0.0, 1.6298528435326731E9, 2021-08-24 18:54:03.532
144.0, -2431463.4375, -3103005.5625, -3453991.5, -4500000.375, -4500000.375, -3290445.75, -3027453.5625, -3454461.75, -4500000.375, -4500000.375, -4500000.375, -4500000.375, -4500000.375, -4500000.375, -4500000.375, -4500000.375, 0.0, 0.0, 0.0, 196.0, 0.0, 0.0, 0.0, 21.0, 113.0, 252.0, 0.0, 0.0, 0.0, 1.62985284353268E9, 2021-08-24 18:54:03.532
146.0, -2436486.1875, -3108264.75, -3454726.125, -4500000.375, -4500000.375, -3293807.625, -3036067.6875, -3454446.375, -4500000.375, -4500000.375, -4500000.375, -4500000.375, -4500000.375, -4500000.375, -4500000.375, -4500000.375, 0.0, 0.0, 0.0, 196.0, 1.0, 16.0, 0.0, 21.0, 114.0, 4.0, 0.0, 0.0, 0.0, 1.629852843532687E9, 2021-08-24 18:54:03.532
148.0, -2432299.6875, -3103745.8125, -3453888.75, -4500000.375, -4500000.375, -3290625.0, -3027736.875, -3454026.75, -4500000.375, -4500000.375, -4500000.375, -4500000.375, -4500000.375, -4500000.375, -4500000.375, -4500000.375, 0.0, 0.0, 0.0, 196.0, 19.5, 168.0, 0.0, 21.0, 114.0, 12.0, 0.0, 0.0, 0.0, 1.6298528435326939E9, 2021-08-24 18:54:03.532
150.0, -2435192.8125, -3107379.5625, -3454637.625, -4500000.375, -4500000.375, -3293538.75, -3035491.6875, -3454559.25, -4500000.375, -4500000.375, -4500000.375, -4500000.375, -4500000.375, -4500000.375, -4500000.375, -4500000.375, 0.0, 0.0, 0.0, 196.0, 0.0, 0.0, 0.0, 21.0, 114.0, 20.0, 0.0, 0.0, 0.0, 1.6298528435327005E9, 2021-08-24 18:54:03.532
152.0, -2433250.3125, -3104679.1875, -3454131.75, -4500000.375, -4500000.375, -3291176.25, -3028576.3125, -3454737.0, -4500000.375, -4500000.375, -4500000.375, -4500000.375, -4500000.375, -4500000.375, -4500000.375, -4500000.375, 0.0, 0.0, 0.0, 196.0, 0.0, 0.0, 0.0, 21.0, 114.0, 28.0, 0.0, 0.0, 0.0, 1.6298528435327072E9, 2021-08-24 18:54:03.532
154.0, -2434076.4375, -3106048.125, -3454155.375, -4500000.375, -4500000.375, -3292794.75, -3034396.125, -3454785.75, -4500000.375, -4500000.375, -4500000.375, -4500000.375, -4500000.375, -4500000.375, -4500000.375, -4500000.375, 0.0, 0.0, 0.0, 196.0, 0.0, 0.0, 0.0, 21.0, 114.0, 36.0, 0.0, 0.0, 0.0, 1.6298528435327165E9, 2021-08-24 18:54:03.532
156.0, -2434311.9375, -3105112.6875, -3453569.625, -4500000.375, -4500000.375, -3290853.375, -3028713.1875, -3454230.0, -4500000.375, -4500000.375, -4500000.375, -4500000.375, -4500000.375, -4500000.375, -4500000.375, -4500000.375, 0.0, 0.0, 0.0, 196.0, 0.5, 120.0, 0.0, 21.0, 114.0, 44.0, 0.0, 0.0, 0.0, 1.6298528435327232E9, 2021-08-24 18:54:03.532
158.0, -2433074.4375, -3105252.1875, -3454152.375, -4500000.375, -4500000.375, -3292405.5, -3033453.75, -3454465.5, -4500000.375, -4500000.375, -4500000.375, -4500000.375, -4500000.375, -4500000.375, -4500000.375, -4500000.375, 0.0, 0.0, 0.0, 196.0, 19.5, 192.0, 0.0, 21.0, 114.0, 52.0, 0.0, 0.0, 0.0, 1.62985284353273E9, 2021-08-24 18:54:03.532
160.0, -2435554.875, -3106527.75, -3453911.25, -4500000.375, -4500000.375, -3291629.25, -3030288.1875, -3454292.25, -4500000.375, -4500000.375, -4500000.375, -4500000.375, -4500000.375, -4500000.375, -4500000.375, -4500000.375, 0.0, 0.0, 0.0, 196.0, 0.0, 0.0, 0.0, 21.0, 114.0, 60.0, 0.0, 0.0, 0.0, 1.6298528435327373E9, 2021-08-24 18:54:03.532
162.0, -2431907.625, -3104484.375, -3454089.375, -4500000.375, -4500000.375, -3292228.5, -3032768.0625, -3454704.375, -4500000.375, -4500000.375, -4500000.375, -4500000.375, -4500000.375, -4500000.375, -4500000.375, -4500000.375, 0.0, 0.0, 0.0, 196.0, 0.0, 0.0, 0.0, 21.0, 114.0, 68.0, 0.0, 0.0, 0.0, 1.6298528435327444E9, 2021-08-24 18:54:03.532
164.0, -2436468.0, -3107587.3125, -3454077.75, -4500000.375, -4500000.375, -3292303.125, -3031685.625, -3454543.5, -4500000.375, -4500000.375, -4500000.375, -4500000.375, -4500000.375, -4500000.375, -4500000.375, -4500000.375, 0.0, 0.0, 0.0, 196.0, 0.0, 0.0, 0.0, 21.0, 114.0, 76.0, 0.0, 0.0, 0.0, 1.629852843532751E9, 2021-08-24 18:54:03.532
166.0, -2430965.625, -3103710.9375, -3454082.625, -4500000.375, -4500000.375, -3291766.5, -3031590.0, -3454924.875, -4500000.375, -4500000.375, -4500000.375, -4500000.375, -4500000.375, -4500000.375, -4500000.375, -4500000.375, 0.0, 0.0, 0.0, 196.0, 0.5, 120.0, 0.0, 21.0, 114.0, 84.0, 0.0, 0.0, 0.0, 1.629852843532758E9, 2021-08-24 18:54:03.532
168.0, -2437316.0625, -3108424.6875, -3454101.375, -4500000.375, -4500000.375, -3292671.0, -3032872.125, -3454852.875, -4500000.375, -4500000.375, -4500000.375, -4500000.375, -4500000.375, -4500000.375, -4500000.375, -4500000.375, 0.0, 0.0, 0.0, 196.0, 19.5, 192.0, 0.0, 21.0, 114.0, 92.0, 0.0, 0.0, 0.0, 1.629852843532765E9, 2021-08-24 18:54:03.532
170.0, -2430133.6875, -3103016.8125, -3453923.625, -4500000.375, -4500000.375, -3291299.625, -3030495.1875, -3454710.0, -4500000.375, -4500000.375, -4500000.375, -4500000.375, -4500000.375, -4500000.375, -4500000.375, -4500000.375, 0.0, 0.0, 0.0, 196.0, 0.0, 0.0, 0.0, 21.0, 114.0, 100.0, 0.0, 0.0, 0.0, 1.6298528435327716E9, 2021-08-24 18:54:03.532
172.0, -2437787.625, -3109089.1875, -3454155.0, -4500000.375, -4500000.375, -3293036.625, -3033956.8125, -3454319.625, -4500000.375, -4500000.375, -4500000.375, -4500000.375, -4500000.375, -4500000.375, -4500000.375, -4500000.375, 0.0, 0.0, 0.0, 196.0, 0.0, 0.0, 0.0, 21.0, 114.0, 108.0, 0.0, 0.0, 0.0, 1.6298528435327785E9, 2021-08-24 18:54:03.532
174.0, -2429931.375, -3102802.6875, -3454383.0, -4500000.375, -4500000.375, -3291402.75, -3029894.8125, -3454783.125, -4500000.375, -4500000.375, -4500000.375, -4500000.375, -4500000.375, -4500000.375, -4500000.375, -4500000.375, 0.0, 0.0, 0.0, 196.0, 0.0, 0.0, 0.0, 21.0, 114.0, 116.0, 0.0, 0.0, 0.0, 1.6298528435327852E9, 2021-08-24 18:54:03.532
176.0, -2438366.4375, -3109914.375, -3454752.0, -4500000.375, -4500000.375, -3293835.375, -3035238.9375, -3454495.5, -4500000.375, -4500000.375, -4500000.375, -4500000.375, -4500000.375, -4500000.375, -4500000.375, -4500000.375, 0.0, 0.0, 0.0, 196.0, 0.5, 120.0, 0.0, 21.0, 114.0, 124.0, 0.0, 0.0, 0.0, 1.629852843532792E9, 2021-08-24 18:54:03.532
178.0, -2429646.0, -3102525.9375, -3454174.125, -4500000.375, -4500000.375, -3290935.125, -3028855.875, -3454490.625, -4500000.375, -4500000.375, -4500000.375, -4500000.375, -4500000.375, -4500000.375, -4500000.375, -4500000.375, 0.0, 0.0, 0.0, 196.0, 19.5, 192.0, 0.0, 21.0, 114.0, 132.0, 0.0, 0.0, 0.0, 1.629852843532799E9, 2021-08-24 18:54:03.532
180.0, -2438154.0, -3109993.6875, -3454532.625, -4500000.375, -4500000.375, -3293837.625, -3035692.3125, -3454534.875, -4500000.375, -4500000.375, -4500000.375, -4500000.375, -4500000.375, -4500000.375, -4500000.375, -4500000.375, 0.0, 0.0, 0.0, 196.0, 0.0, 0.0, 0.0, 21.0, 114.0, 140.0, 0.0, 0.0, 0.0, 1.629852843532806E9, 2021-08-24 18:54:03.532
182.0, -2429731.3125, -3102589.6875, -3454282.125, -4500000.375, -4500000.375, -3290778.375, -3028362.75, -3454643.625, -4500000.375, -4500000.375, -4500000.375, -4500000.375, -4500000.375, -4500000.375, -4500000.375, -4500000.375, 0.0, 0.0, 0.0, 196.0, 0.0, 0.0, 0.0, 21.0, 114.0, 148.0, 0.0, 0.0, 0.0, 1.6298528435328128E9, 2021-08-24 18:54:03.532
184.0, -2437871.8125, -3109585.5, -3454199.625, -4500000.375, -4500000.375, -3293477.25, -3036035.0625, -3454158.75, -4500000.375, -4500000.375, -4500000.375, -4500000.375, -4500000.375, -4500000.375, -4500000.375, -4500000.375, 0.0, 0.0, 0.0, 196.0, 0.0, 0.0, 0.0, 21.0, 114.0, 156.0, 0.0, 0.0, 0.0, 1.6298528435328195E9, 2021-08-24 18:54:03.532
186.0, -2430030.5625, -3102470.625, -3453863.625, -4500000.375, -4500000.375, -3290220.0, -3027595.125, -3454350.75, -4500000.375, -4500000.375, -4500000.375, -4500000.375, -4500000.375, -4500000.375, -4500000.375, -4500000.375, 0.0, 0.0, 0.0, 196.0, 0.5, 112.0, 0.0, 21.0, 114.0, 164.0, 0.0, 0.0, 0.0, 1.6298528435328264E9, 2021-08-24 18:54:03.532
188.0, -2437444.6875, -3109467.0, -3454312.125, -4500000.375, -4500000.375, -3293586.75, -3036191.625, -3454348.5, -4500000.375, -4500000.375, -4500000.375, -4500000.375, -4500000.375, -4500000.375, -4500000.375, -4500000.375, 0.0, 0.0, 0.0, 196.0, 19.5, 192.0, 0.0, 21.0, 114.0, 172.0, 0.0, 0.0, 0.0, 1.6298528435328352E9, 2021-08-24 18:54:03.532
190.0, -2430535.3125, -3102979.6875, -3453863.625, -4500000.375, -4500000.375, -3290292.0, -3027504.5625, -3454405.875, -4500000.375, -4500000.375, -4500000.375, -4500000.375, -4500000.375, -4500000.375, -4500000.375, -4500000.375, 0.0, 0.0, 0.0, 196.0, 0.0, 0.0, 0.0, 21.0, 114.0, 180.0, 0.0, 0.0, 0.0, 1.629852843532842E9, 2021-08-24 18:54:03.532
192.0, -2436407.25, -3108904.125, -3454129.125, -4500000.375, -4500000.375, -3293331.375, -3035978.625, -3454282.125, -4500000.375, -4500000.375, -4500000.375, -4500000.375, -4500000.375, -4500000.375, -4500000.375, -4500000.375, 0.0, 0.0, 0.0, 196.0, 0.0, 0.0, 0.0, 21.0, 114.0, 188.0, 0.0, 0.0, 0.0, 1.6298528435328503E9, 2021-08-24 18:54:03.532
194.0, -2431173.75, -3103592.4375, -3453752.625, -4500000.375, -4500000.375, -3290259.0, -3027567.375, -3454289.25, -4500000.375, -4500000.375, -4500000.375, -4500000.375, -4500000.375, -4500000.375, -4500000.375, -4500000.375, 0.0, 0.0, 0.0, 196.0, 0.0, 0.0, 0.0, 21.0, 114.0, 196.0, 0.0, 0.0, 0.0, 1.6298528435328758E9, 2021-08-24 18:54:03.532
196.0, -2435492.625, -3108195.0, -3454146.75, -4500000.375, -4500000.375, -3293047.125, -3035590.3125, -3454234.875, -4500000.375, -4500000.375, -4500000.375, -4500000.375, -4500000.375, -4500000.375, -4500000.375, -4500000.375, 0.0, 0.0, 0.0, 196.0, 0.5, 96.0, 0.0, 21.0, 114.0, 204.0, 0.0, 0.0, 0.0, 1.6298528435328827E9, 2021-08-24 18:54:03.532
198.0, -2432176.3125, -3104587.5, -3454078.125, -4500000.375, -4500000.375, -3290709.75, -3028005.5625, -3454465.5, -4500000.375, -4500000.375, -4500000.375, -4500000.375, -4500000.375, -4500000.375, -4500000.375, -4500000.375, 0.0, 0.0, 0.0, 196.0, 19.5, 176.0, 0.0, 21.0, 114.0, 212.0, 0.0, 0.0, 0.0, 1.62985284353289E9, 2021-08-24 18:54:03.532
200.0, -2434338.75, -3107327.0625, -3454111.875, -4500000.375, -4500000.375, -3292887.75, -3034848.375, -3454017.0, -4500000.375, -4500000.375, -4500000.375, -4500000.375, -4500000.375, -4500000.375, -4500000.375, -4500000.375, 0.0, 0.0, 0.0, 196.0, 0.0, 0.0, 0.0, 21.0, 114.0, 220.0, 0.0, 0.0, 0.0, 1.6298528435328972E9, 2021-08-24 18:54:03.532
202.0, -2433339.375, -3105257.4375, -3454032.75, -4500000.375, -4500000.375, -3290967.375, -3028258.125, -3454116.75, -4500000.375, -4500000.375, -4500000.375, -4500000.375, -4500000.375, -4500000.375, -4500000.375, -4500000.375, 0.0, 0.0, 0.0, 196.0, 0.0, 0.0, 0.0, 21.0, 114.0, 228.0, 0.0, 0.0, 0.0, 1.6298528435329044E9, 2021-08-24 18:54:03.532
204.0, -2433714.9375, -3106658.625, -3454760.625, -4500000.375, -4500000.375, -3293198.625, -3034235.8125, -3454470.75, -4500000.375, -4500000.375, -4500000.375, -4500000.375, -4500000.375, -4500000.375, -4500000.375, -4500000.375, 0.0, 0.0, 0.0, 196.0, 0.0, 0.0, 0.0, 21.0, 114.0, 236.0, 0.0, 0.0, 0.0, 1.6298528435329113E9, 2021-08-24 18:54:03.532
206.0, -2434626.375, -3106463.4375, -3454591.5, -4500000.375, -4500000.375, -3291936.0, -3029543.625, -3454367.25, -4500000.375, -4500000.375, -4500000.375, -4500000.375, -4500000.375, -4500000.375, -4500000.375, -4500000.375, 0.0, 0.0, 0.0, 196.0, 0.5, 96.0, 0.0, 21.0, 114.0, 244.0, 0.0, 0.0, 0.0, 1.6298528435329185E9, 2021-08-24 18:54:03.532
208.0, -2432479.5, -3105580.875, -3454633.875, -4500000.375, -4500000.375, -3292927.875, -3033121.6875, -3454416.375, -4500000.375, -4500000.375, -4500000.375, -4500000.375, -4500000.375, -4500000.375, -4500000.375, -4500000.375, 0.0, 0.0, 0.0, 196.0, 19.5, 200.0, 0.0, 21.0, 114.0, 252.0, 0.0, 0.0, 0.0, 1.629852843532941E9, 2021-08-24 18:54:03.532
210.0, -2435455.125, -3107406.9375, -3454399.5, -4500000.375, -4500000.375, -3292305.0, -3030324.5625, -3454275.0, -4500000.375, -4500000.375, -4500000.375, -4500000.375, -4500000.375, -4500000.375, -4500000.375, -4500000.375, 0.0, 0.0, 0.0, 196.0, 0.0, 0.0, 0.0, 21.0, 115.0, 4.0, 0.0, 0.0, 0.0, 1.629852843532948E9, 2021-08-24 18:54:03.532
212.0, -2431361.0625, -3104637.9375, -3454446.75, -4500000.375, -4500000.375, -3292403.25, -3031837.3125, -3454465.125, -4500000.375, -4500000.375, -4500000.375, -4500000.375, -4500000.375, -4500000.375, -4500000.375, -4500000.375, 0.0, 0.0, 0.0, 196.0, 0.0, 0.0, 0.0, 21.0, 115.0, 12.0, 0.0, 0.0, 0.0, 1.629852843532955E9, 2021-08-24 18:54:03.532
214.0, -2436487.3125, -3108070.125, -3454314.375, -4500000.375, -4500000.375, -3292443.375, -3031072.875, -3454252.5, -4500000.375, -4500000.375, -4500000.375, -4500000.375, -4500000.375, -4500000.375, -4500000.375, -4500000.375, 0.0, 0.0, 0.0, 196.0, 0.0, 0.0, 0.0, 21.0, 115.0, 20.0, 0.0, 0.0, 0.0, 1.629852843532962E9, 2021-08-24 18:54:03.532
216.0, -2430847.125, -3104071.875, -3454775.625, -4500000.375, -4500000.375, -3292152.375, -3030732.375, -3454893.0, -4500000.375, -4500000.375, -4500000.375, -4500000.375, -4500000.375, -4500000.375, -4500000.375, -4500000.375, 0.0, 0.0, 0.0, 196.0, 0.5, 88.0, 0.0, 21.0, 115.0, 28.0, 0.0, 0.0, 0.0, 1.6298528435329816E9, 2021-08-24 18:54:03.532
218.0, -2437415.8125, -3108996.0, -3454511.625, -4500000.375, -4500000.375, -3293023.875, -3032355.0, -3454492.5, -4500000.375, -4500000.375, -4500000.375, -4500000.375, -4500000.375, -4500000.375, -4500000.375, -4500000.375, 0.0, 0.0, 0.0, 196.0, 19.5, 200.0, 0.0, 21.0, 115.0, 36.0, 0.0, 0.0, 0.0, 1.6298528435329883E9, 2021-08-24 18:54:03.532
220.0, -2430012.375, -3102982.875, -3454191.375, -4500000.375, -4500000.375, -3291423.75, -3029370.75, -3454674.375, -4500000.375, -4500000.375, -4500000.375, -4500000.375, -4500000.375, -4500000.375, -4500000.375, -4500000.375, 0.0, 0.0, 0.0, 196.0, 0.0, 0.0, 0.0, 21.0, 115.0, 44.0, 0.0, 0.0, 0.0, 1.6298528435329947E9, 2021-08-24 18:54:03.532
222.0, -2437733.4375, -3109294.125, -3454273.125, -4500000.375, -4500000.375, -3293107.125, -3033137.25, -3454227.0, -4500000.375, -4500000.375, -4500000.375, -4500000.375, -4500000.375, -4500000.375, -4500000.375, -4500000.375, 0.0, 0.0, 0.0, 196.0, 0.0, 0.0, 0.0, 21.0, 115.0, 52.0, 0.0, 0.0, 0.0, 1.6298528435330052E9, 2021-08-24 18:54:03.533
224.0, -2429329.5, -3102519.0, -3454003.5, -4500000.375, -4500000.375, -3290687.25, -3028075.3125, -3454204.875, -4500000.375, -4500000.375, -4500000.375, -4500000.375, -4500000.375, -4500000.375, -4500000.375, -4500000.375, 0.0, 0.0, 0.0, 196.0, 0.0, 0.0, 0.0, 21.0, 115.0, 60.0, 0.0, 0.0, 0.0, 1.6298528435330117E9, 2021-08-24 18:54:03.533
226.0, -2437944.75, -3109684.125, -3454213.5, -4500000.375, -4500000.375, -3293044.125, -3033712.6875, -3454024.5, -4500000.375, -4500000.375, -4500000.375, -4500000.375, -4500000.375, -4500000.375, -4500000.375, -4500000.375, 0.0, 0.0, 0.0, 196.0, 0.5, 112.0, 0.0, 21.0, 115.0, 68.0, 0.0, 0.0, 0.0, 1.6298528440134313E9, 2021-08-24 18:54:04.013
228.0, -2429507.0625, -3102295.6875, -3453796.5, -4500000.375, -4500000.375, -3290338.5, -3027174.0, -3454110.0, -4500000.375, -4500000.375, -4500000.375, -4500000.375, -4500000.375, -4500000.375, -4500000.375, -4500000.375, 0.0, 0.0, 0.0, 196.0, 19.5, 168.0, 0.0, 21.0, 115.0, 76.0, 0.0, 0.0, 0.0, 1.629852844013451E9, 2021-08-24 18:54:04.013
230.0, -2438284.3125, -3109712.625, -3454244.625, -4500000.375, -4500000.375, -3293547.375, -3034562.4375, -3454366.875, -4500000.375, -4500000.375, -4500000.375, -4500000.375, -4500000.375, -4500000.375, -4500000.375, -4500000.375, 0.0, 0.0, 0.0, 196.0, 0.0, 0.0, 0.0, 21.0, 115.0, 84.0, 0.0, 0.0, 0.0, 1.629852844013458E9, 2021-08-24 18:54:04.013
232.0, -2429811.75, -3102239.4375, -3453900.75, -4500000.375, -4500000.375, -3290467.125, -3026831.8125, -3454529.25, -4500000.375, -4500000.375, -4500000.375, -4500000.375, -4500000.375, -4500000.375, -4500000.375, -4500000.375, 0.0, 0.0, 0.0, 196.0, 0.0, 0.0, 0.0, 21.0, 115.0, 92.0, 0.0, 0.0, 0.0, 1.6298528440134647E9, 2021-08-24 18:54:04.013
234.0, -2437571.4375, -3109410.5625, -3454143.0, -4500000.375, -4500000.375, -3293544.75, -3034853.8125, -3454062.75, -4500000.375, -4500000.375, -4500000.375, -4500000.375, -4500000.375, -4500000.375, -4500000.375, -4500000.375, 0.0, 0.0, 0.0, 196.0, 0.0, 0.0, 0.0, 21.0, 115.0, 100.0, 0.0, 0.0, 0.0, 1.6298528440134711E9, 2021-08-24 18:54:04.013
236.0, -2429764.5, -3102492.1875, -3453836.25, -4500000.375, -4500000.375, -3290385.75, -3026490.1875, -3454191.0, -4500000.375, -4500000.375, -4500000.375, -4500000.375, -4500000.375, -4500000.375, -4500000.375, -4500000.375, 0.0, 0.0, 0.0, 196.0, 0.5, 88.0, 0.0, 21.0, 115.0, 108.0, 0.0, 0.0, 0.0, 1.6298528440134778E9, 2021-08-24 18:54:04.013
238.0, -2436935.625, -3109276.5, -3454258.125, -4500000.375, -4500000.375, -3293731.875, -3035136.9375, -3454207.125, -4500000.375, -4500000.375, -4500000.375, -4500000.375, -4500000.375, -4500000.375, -4500000.375, -4500000.375, 0.0, 0.0, 0.0, 196.0, 19.5, 176.0, 0.0, 21.0, 115.0, 116.0, 0.0, 0.0, 0.0, 1.6298528440134845E9, 2021-08-24 18:54:04.013
240.0, -2430680.25, -3103018.3125, -3453725.25, -4500000.375, -4500000.375, -3290581.5, -3026587.6875, -3454593.375, -4500000.375, -4500000.375, -4500000.375, -4500000.375, -4500000.375, -4500000.375, -4500000.375, -4500000.375, 0.0, 0.0, 0.0, 196.0, 0.0, 0.0, 0.0, 21.0, 115.0, 124.0, 0.0, 0.0, 0.0, 1.629852844013491E9, 2021-08-24 18:54:04.013
242.0, -2436427.6875, -3108375.75, -3453840.75, -4500000.375, -4500000.375, -3293438.625, -3034777.6875, -3454486.5, -4500000.375, -4500000.375, -4500000.375, -4500000.375, -4500000.375, -4500000.375, -4500000.375, -4500000.375, 0.0, 0.0, 0.0, 196.0, 0.0, 0.0, 0.0, 21.0, 115.0, 132.0, 0.0, 0.0, 0.0, 1.6298528440134976E9, 2021-08-24 18:54:04.013
244.0, -2431712.8125, -3103294.125, -3453495.75, -4500000.375, -4500000.375, -3290443.125, -3026366.8125, -3454532.25, -4500000.375, -4500000.375, -4500000.375, -4500000.375, -4500000.375, -4500000.375, -4500000.375, -4500000.375, 0.0, 0.0, 0.0, 196.0, 0.0, 0.0, 0.0, 21.0, 115.0, 140.0, 0.0, 0.0, 0.0, 1.629852844013504E9, 2021-08-24 18:54:04.013
246.0, -2435511.9375, -3107558.25, -3454179.75, -4500000.375, -4500000.375, -3293343.75, -3034272.75, -3454491.75, -4500000.375, -4500000.375, -4500000.375, -4500000.375, -4500000.375, -4500000.375, -4500000.375, -4500000.375, 0.0, 0.0, 0.0, 196.0, 0.5, 72.0, 0.0, 21.0, 115.0, 148.0, 0.0, 0.0, 0.0, 1.6298528440135107E9, 2021-08-24 18:54:04.013
248.0, -2432505.1875, -3104101.5, -3453709.125, -4500000.375, -4500000.375, -3290670.0, -3026745.0, -3454042.125, -4500000.375, -4500000.375, -4500000.375, -4500000.375, -4500000.375, -4500000.375, -4500000.375, -4500000.375, 0.0, 0.0, 0.0, 196.0, 19.5, 176.0, 0.0, 21.0, 115.0, 156.0, 0.0, 0.0, 0.0, 1.6298528440135171E9, 2021-08-24 18:54:04.013
250.0, -2434236.9375, -3106666.6875, -3454137.375, -4500000.375, -4500000.375, -3293092.5, -3033579.75, -3454219.5, -4500000.375, -4500000.375, -4500000.375, -4500000.375, -4500000.375, -4500000.375, -4500000.375, -4500000.375, 0.0, 0.0, 0.0, 196.0, 0.0, 0.0, 0.0, 21.0, 115.0, 164.0, 0.0, 0.0, 0.0, 1.6298528440135238E9, 2021-08-24 18:54:04.013
252.0, -2433875.25, -3105444.75, -3454124.25, -4500000.375, -4500000.375, -3291425.25, -3027676.6875, -3454295.625, -4500000.375, -4500000.375, -4500000.375, -4500000.375, -4500000.375, -4500000.375, -4500000.375, -4500000.375, 0.0, 0.0, 0.0, 196.0, 0.0, 0.0, 0.0, 21.0, 115.0, 172.0, 0.0, 0.0, 0.0, 1.629852844013532E9, 2021-08-24 18:54:04.013
254.0, -2433426.375, -3105947.8125, -3454192.125, -4500000.375, -4500000.375, -3292814.625, -3032680.125, -3454253.25, -4500000.375, -4500000.375, -4500000.375, -4500000.375, -4500000.375, -4500000.375, -4500000.375, -4500000.375, 0.0, 0.0, 0.0, 196.0, 0.0, 0.0, 0.0, 21.0, 115.0, 180.0, 0.0, 0.0, 0.0, 1.6298528440135384E9, 2021-08-24 18:54:04.013
0.0, -2435000.25, -3105950.0625, -3453522.375, -4500000.375, -4500000.375, -3291133.875, -3028196.4375, -3454110.375, -4500000.375, -4500000.375, -4500000.375, -4500000.375, -4500000.375, -4500000.375, -4500000.375, -4500000.375, 0.0, 0.0, 0.0, 196.0, 0.0, 0.0, 0.0, 21.0, 115.0, 188.0, 0.0, 0.0, 0.0, 1.6298528440135531E9, 2021-08-24 18:54:04.013
2.0, -2432372.25, -3104655.0, -3453802.5, -4500000.375, -4500000.375, -3292013.625, -3031494.5625, -3454428.0, -4500000.375, -4500000.375, -4500000.375, -4500000.375, -4500000.375, -4500000.375, -4500000.375, -4500000.375, 0.0, 0.0, 0.0, 196.0, 0.0, 0.0, 0.0, 21.0, 115.0, 196.0, 0.0, 0.0, 0.0, 1.62985284401356E9, 2021-08-24 18:54:04.013
4.0, -2436128.25, -3107262.1875, -3454134.0, -4500000.375, -4500000.375, -3292035.375, -3029737.6875, -3454596.375, -4500000.375, -4500000.375, -4500000.375, -4500000.375, -4500000.375, -4500000.375, -4500000.375, -4500000.375, 0.0, 0.0, 0.0, 196.0, 0.0, 0.0, 0.0, 21.0, 115.0, 204.0, 0.0, 0.0, 0.0, 1.6298528440135665E9, 2021-08-24 18:54:04.013
8.0, -2436664.875, -3107875.3125, -3453741.75, -4500000.375, -4500000.375, -3292207.5, -3030498.375, -3453768.0, -4500000.375, -4500000.375, -4500000.375, -4500000.375, -4500000.375, -4500000.375, -4500000.375, -4500000.375, 0.0, 0.0, 0.0, 196.0, 19.5, 176.0, 0.0, 21.0, 115.0, 220.0, 0.0, 0.0, 0.0, 1.6298528440136275E9, 2021-08-24 18:54:04.013
10.0, -2430339.5625, -3103264.5, -3453985.5, -4500000.375, -4500000.375, -3291601.125, -3029566.125, -3454137.75, -4500000.375, -4500000.375, -4500000.375, -4500000.375, -4500000.375, -4500000.375, -4500000.375, -4500000.375, 0.0, 0.0, 0.0, 196.0, 0.0, 0.0, 0.0, 21.0, 115.0, 228.0, 0.0, 0.0, 0.0, 1.6298528440136342E9, 2021-08-24 18:54:04.013
12.0, -2437391.625, -3108636.5625, -3453878.625, -4500000.375, -4500000.375, -3292669.875, -3031668.9375, -3453892.125, -4500000.375, -4500000.375, -4500000.375, -4500000.375, -4500000.375, -4500000.375, -4500000.375, -4500000.375, 0.0, 0.0, 0.0, 196.0, 0.0, 0.0, 0.0, 21.0, 115.0, 236.0, 0.0, 0.0, 0.0, 1.6298528440136409E9, 2021-08-24 18:54:04.013
14.0, -2430001.125, -3102820.875, -3454026.75, -4500000.375, -4500000.375, -3291179.25, -3028332.75, -3454516.125, -4500000.375, -4500000.375, -4500000.375, -4500000.375, -4500000.375, -4500000.375, -4500000.375, -4500000.375, 0.0, 0.0, 0.0, 196.0, 0.0, 0.0, 0.0, 21.0, 115.0, 244.0, 0.0, 0.0, 0.0, 1.6298528440136473E9, 2021-08-24 18:54:04.013
16.0, -2438064.375, -3109196.0625, -3453916.875, -4500000.375, -4500000.375, -3292930.5, -3032459.0625, -3454127.625, -4500000.375, -4500000.375, -4500000.375, -4500000.375, -4500000.375, -4500000.375, -4500000.375, -4500000.375, 0.0, 0.0, 0.0, 196.0, 0.5, 88.0, 0.0, 21.0, 115.0, 252.0, 0.0, 0.0, 0.0, 1.629852844013654E9, 2021-08-24 18:54:04.013
18.0, -2429796.1875, -3102454.5, -3453991.875, -4500000.375, -4500000.375, -3290738.25, -3027223.5, -3454575.375, -4500000.375, -4500000.375, -4500000.375, -4500000.375, -4500000.375, -4500000.375, -4500000.375, -4500000.375, 0.0, 0.0, 0.0, 196.0, 19.5, 160.0, 0.0, 21.0, 116.0, 4.0, 0.0, 0.0, 0.0, 1.6298528440136664E9, 2021-08-24 18:54:04.013
20.0, -2438186.0625, -3109633.6875, -3454236.0, -4500000.375, -4500000.375, -3293260.125, -3033316.3125, -3454198.875, -4500000.375, -4500000.375, -4500000.375, -4500000.375, -4500000.375, -4500000.375, -4500000.375, -4500000.375, 0.0, 0.0, 0.0, 196.0, 0.0, 0.0, 0.0, 21.0, 116.0, 12.0, 0.0, 0.0, 0.0, 1.629852844013673E9, 2021-08-24 18:54:04.013
22.0, -2429570.8125, -3102112.875, -3453849.0, -4500000.375, -4500000.375, -3290314.5, -3026486.4375, -3454087.875, -4500000.375, -4500000.375, -4500000.375, -4500000.375, -4500000.375, -4500000.375, -4500000.375, -4500000.375, 0.0, 0.0, 0.0, 196.0, 0.0, 0.0, 0.0, 21.0, 116.0, 20.0, 0.0, 0.0, 0.0, 1.6298528440136795E9, 2021-08-24 18:54:04.013
24.0, -2437794.5625, -3109426.125, -3454006.5, -4500000.375, -4500000.375, -3293278.875, -3033883.3125, -3453671.25, -4500000.375, -4500000.375, -4500000.375, -4500000.375, -4500000.375, -4500000.375, -4500000.375, -4500000.375, 0.0, 0.0, 0.0, 196.0, 0.0, 0.0, 0.0, 21.0, 116.0, 28.0, 0.0, 0.0, 0.0, 1.6298528440136862E9, 2021-08-24 18:54:04.013
26.0, -2429827.875, -3102449.8125, -3454111.875, -4500000.375, -4500000.375, -3290572.875, -3026262.1875, -3454431.375, -4500000.375, -4500000.375, -4500000.375, -4500000.375, -4500000.375, -4500000.375, -4500000.375, -4500000.375, 0.0, 0.0, 0.0, 196.0, 0.5, 80.0, 0.0, 21.0, 116.0, 36.0, 0.0, 0.0, 0.0, 1.6298528440136929E9, 2021-08-24 18:54:04.013
28.0, -2437629.375, -3109291.5, -3454158.0, -4500000.375, -4500000.375, -3293511.375, -3034275.0, -3454014.375, -4500000.375, -4500000.375, -4500000.375, -4500000.375, -4500000.375, -4500000.375, -4500000.375, -4500000.375, 0.0, 0.0, 0.0, 196.0, 19.5, 176.0, 0.0, 21.0, 116.0, 44.0, 0.0, 0.0, 0.0, 1.6298528440136993E9, 2021-08-24 18:54:04.013
30.0, -2430560.0625, -3102640.6875, -3454079.25, -4500000.375, -4500000.375, -3290632.875, -3026150.0625, -3454481.625, -4500000.375, -4500000.375, -4500000.375, -4500000.375, -4500000.375, -4500000.375, -4500000.375, -4500000.375, 0.0, 0.0, 0.0, 196.0, 0.0, 0.0, 0.0, 21.0, 116.0, 52.0, 0.0, 0.0, 0.0, 1.629852844013706E9, 2021-08-24 18:54:04.013
32.0, -2437314.375, -3109242.75, -3454617.0, -4500000.375, -4500000.375, -3293854.5, -3034792.6875, -3454313.25, -4500000.375, -4500000.375, -4500000.375, -4500000.375, -4500000.375, -4500000.375, -4500000.375, -4500000.375, 0.0, 0.0, 0.0, 196.0, 0.0, 0.0, 0.0, 21.0, 116.0, 60.0, 0.0, 0.0, 0.0, 1.6298528440137126E9, 2021-08-24 18:54:04.013
34.0, -2431093.3125, -3103177.125, -3453956.625, -4500000.375, -4500000.375, -3290397.375, -3025922.0625, -3454134.0, -4500000.375, -4500000.375, -4500000.375, -4500000.375, -4500000.375, -4500000.375, -4500000.375, -4500000.375, 0.0, 0.0, 0.0, 196.0, 0.0, 0.0, 0.0, 21.0, 116.0, 68.0, 0.0, 0.0, 0.0, 1.629852844013719E9, 2021-08-24 18:54:04.013
36.0, -2435739.375, -3108100.125, -3453915.0, -4500000.375, -4500000.375, -3293001.0, -3033891.375, -3453481.125, -4500000.375, -4500000.375, -4500000.375, -4500000.375, -4500000.375, -4500000.375, -4500000.375, -4500000.375, 0.0, 0.0, 0.0, 196.0, 0.5, 80.0, 0.0, 21.0, 116.0, 76.0, 0.0, 0.0, 0.0, 1.629852844013728E9, 2021-08-24 18:54:04.013
38.0, -2431705.875, -3103564.5, -3453604.5, -4500000.375, -4500000.375, -3290399.25, -3026035.125, -3453784.125, -4500000.375, -4500000.375, -4500000.375, -4500000.375, -4500000.375, -4500000.375, -4500000.375, -4500000.375, 0.0, 0.0, 0.0, 196.0, 19.5, 152.0, 0.0, 21.0, 116.0, 84.0, 0.0, 0.0, 0.0, 1.6298528440137343E9, 2021-08-24 18:54:04.013
40.0, -2434958.8125, -3107547.5625, -3454273.5, -4500000.375, -4500000.375, -3293380.125, -3033951.0, -3453924.75, -4500000.375, -4500000.375, -4500000.375, -4500000.375, -4500000.375, -4500000.375, -4500000.375, -4500000.375, 0.0, 0.0, 0.0, 196.0, 0.0, 0.0, 0.0, 21.0, 116.0, 92.0, 0.0, 0.0, 0.0, 1.6298528440137413E9, 2021-08-24 18:54:04.013
42.0, -2432951.0625, -3104559.5625, -3453768.0, -4500000.375, -4500000.375, -3290975.25, -3026898.375, -3454002.0, -4500000.375, -4500000.375, -4500000.375, -4500000.375, -4500000.375, -4500000.375, -4500000.375, -4500000.375, 0.0, 0.0, 0.0, 196.0, 0.0, 0.0, 0.0, 21.0, 116.0, 100.0, 0.0, 0.0, 0.0, 1.6298528440137477E9, 2021-08-24 18:54:04.013
44.0, -2434341.375, -3106813.6875, -3454432.125, -4500000.375, -4500000.375, -3293491.875, -3033535.6875, -3454518.0, -4500000.375, -4500000.375, -4500000.375, -4500000.375, -4500000.375, -4500000.375, -4500000.375, -4500000.375, 0.0, 0.0, 0.0, 196.0, 0.0, 0.0, 0.0, 21.0, 116.0, 108.0, 0.0, 0.0, 0.0, 1.6298528440137541E9, 2021-08-24 18:54:04.013
46.0, -2434439.0625, -3105745.6875, -3454112.625, -4500000.375, -4500000.375, -3291689.25, -3027981.375, -3454466.25, -4500000.375, -4500000.375, -4500000.375, -4500000.375, -4500000.375, -4500000.375, -4500000.375, -4500000.375, 0.0, 0.0, 0.0, 196.0, 0.5, 80.0, 0.0, 21.0, 116.0, 116.0, 0.0, 0.0, 0.0, 1.6298528440137608E9, 2021-08-24 18:54:04.013
48.0, -2433589.3125, -3106024.125, -3454660.125, -4500000.375, -4500000.375, -3293258.25, -3032798.0625, -3454826.625, -4500000.375, -4500000.375, -4500000.375, -4500000.375, -4500000.375, -4500000.375, -4500000.375, -4500000.375, 0.0, 0.0, 0.0, 196.0, 19.5, 184.0, 0.0, 21.0, 116.0, 124.0, 0.0, 0.0, 0.0, 1.6298528440137675E9, 2021-08-24 18:54:04.013
50.0, -2435673.9375, -3106957.5, -3454383.0, -4500000.375, -4500000.375, -3292154.25, -3029026.875, -3454563.375, -4500000.375, -4500000.375, -4500000.375, -4500000.375, -4500000.375, -4500000.375, -4500000.375, -4500000.375, 0.0, 0.0, 0.0, 196.0, 0.0, 0.0, 0.0, 21.0, 116.0, 132.0, 0.0, 0.0, 0.0, 1.629852844013774E9, 2021-08-24 18:54:04.013
52.0, -2432198.8125, -3105040.6875, -3454487.625, -4500000.375, -4500000.375, -3292616.25, -3031498.3125, -3454560.375, -4500000.375, -4500000.375, -4500000.375, -4500000.375, -4500000.375, -4500000.375, -4500000.375, -4500000.375, 0.0, 0.0, 0.0, 196.0, 0.0, 0.0, 0.0, 21.0, 116.0, 140.0, 0.0, 0.0, 0.0, 1.6298528440137806E9, 2021-08-24 18:54:04.013
54.0, -2436304.875, -3107697.75, -3454144.125, -4500000.375, -4500000.375, -3292314.375, -3029798.25, -3454055.625, -4500000.375, -4500000.375, -4500000.375, -4500000.375, -4500000.375, -4500000.375, -4500000.375, -4500000.375, 0.0, 0.0, 0.0, 196.0, 0.0, 0.0, 0.0, 21.0, 116.0, 148.0, 0.0, 0.0, 0.0, 1.6298528440137873E9, 2021-08-24 18:54:04.013
56.0, -2431177.5, -3104382.5625, -3454548.0, -4500000.375, -4500000.375, -3292251.0, -3030496.3125, -3454394.25, -4500000.375, -4500000.375, -4500000.375, -4500000.375, -4500000.375, -4500000.375, -4500000.375, -4500000.375, 0.0, 0.0, 0.0, 196.0, 0.5, 80.0, 0.0, 21.0, 116.0, 156.0, 0.0, 0.0, 0.0, 1.6298528440137937E9, 2021-08-24 18:54:04.013
58.0, -2437152.9375, -3108708.375, -3454228.875, -4500000.375, -4500000.375, -3292558.875, -3030912.5625, -3454033.875, -4500000.375, -4500000.375, -4500000.375, -4500000.375, -4500000.375, -4500000.375, -4500000.375, -4500000.375, 0.0, 0.0, 0.0, 196.0, 19.5, 200.0, 0.0, 21.0, 116.0, 164.0, 0.0, 0.0, 0.0, 1.6298528440138004E9, 2021-08-24 18:54:04.013
60.0, -2430405.5625, -3103624.5, -3454308.375, -4500000.375, -4500000.375, -3291649.5, -3029274.75, -3454480.125, -4500000.375, -4500000.375, -4500000.375, -4500000.375, -4500000.375, -4500000.375, -4500000.375, -4500000.375, 0.0, 0.0, 0.0, 196.0, 0.0, 0.0, 0.0, 21.0, 116.0, 172.0, 0.0, 0.0, 0.0, 1.6298528440138068E9, 2021-08-24 18:54:04.013
62.0, -2437686.1875, -3109342.5, -3454257.375, -4500000.375, -4500000.375, -3293034.0, -3032167.875, -3454068.0, -4500000.375, -4500000.375, -4500000.375, -4500000.375, -4500000.375, -4500000.375, -4500000.375, -4500000.375, 0.0, 0.0, 0.0, 196.0, 0.0, 0.0, 0.0, 21.0, 116.0, 180.0, 0.0, 0.0, 0.0, 1.6298528440138135E9, 2021-08-24 18:54:04.013
64.0, -2429848.125, -3102892.3125, -3454204.125, -4500000.375, -4500000.375, -3291494.625, -3028510.875, -3454425.75, -4500000.375, -4500000.375, -4500000.375, -4500000.375, -4500000.375, -4500000.375, -4500000.375, -4500000.375, 0.0, 0.0, 0.0, 196.0, 0.0, 0.0, 0.0, 21.0, 116.0, 188.0, 0.0, 0.0, 0.0, 1.62985284401382E9, 2021-08-24 18:54:04.013
66.0, -2438007.5625, -3109512.5625, -3454100.25, -4500000.375, -4500000.375, -3293514.375, -3033277.6875, -3453874.5, -4500000.375, -4500000.375, -4500000.375, -4500000.375, -4500000.375, -4500000.375, -4500000.375, -4500000.375, 0.0, 0.0, 0.0, 196.0, 0.5, 72.0, 0.0, 21.0, 116.0, 196.0, 0.0, 0.0, 0.0, 1.6298528440138266E9, 2021-08-24 18:54:04.013
68.0, -2429777.4375, -3102539.25, -3454221.0, -4500000.375, -4500000.375, -3291350.25, -3027791.4375, -3454536.0, -4500000.375, -4500000.375, -4500000.375, -4500000.375, -4500000.375, -4500000.375, -4500000.375, -4500000.375, 0.0, 0.0, 0.0, 196.0, 19.5, 208.0, 0.0, 21.0, 116.0, 204.0, 0.0, 0.0, 0.0, 1.6298528440138333E9, 2021-08-24 18:54:04.013
70.0, -2438418.9375, -3109924.5, -3454590.375, -4500000.375, -4500000.375, -3294108.0, -3034336.6875, -3454350.375, -4500000.375, -4500000.375, -4500000.375, -4500000.375, -4500000.375, -4500000.375, -4500000.375, -4500000.375, 0.0, 0.0, 0.0, 196.0, 0.0, 0.0, 0.0, 21.0, 116.0, 212.0, 0.0, 0.0, 0.0, 1.6298528440138416E9, 2021-08-24 18:54:04.013
72.0, -2430000.5625, -3102569.8125, -3454268.625, -4500000.375, -4500000.375, -3291118.5, -3026986.875, -3454654.5, -4500000.375, -4500000.375, -4500000.375, -4500000.375, -4500000.375, -4500000.375, -4500000.375, -4500000.375, 0.0, 0.0, 0.0, 196.0, 0.0, 0.0, 0.0, 21.0, 116.0, 220.0, 0.0, 0.0, 0.0, 1.6298528440138485E9, 2021-08-24 18:54:04.013
74.0, -2438320.6875, -3110088.1875, -3454680.0, -4500000.375, -4500000.375, -3294298.875, -3034840.3125, -3454521.375, -4500000.375, -4500000.375, -4500000.375, -4500000.375, -4500000.375, -4500000.375, -4500000.375, -4500000.375, 0.0, 0.0, 0.0, 196.0, 0.0, 0.0, 0.0, 21.0, 116.0, 228.0, 0.0, 0.0, 0.0, 1.6298528440138552E9, 2021-08-24 18:54:04.013
76.0, -2430392.625, -3103045.6875, -3454572.375, -4500000.375, -4500000.375, -3291276.375, -3026919.1875, -3454598.625, -4500000.375, -4500000.375, -4500000.375, -4500000.375, -4500000.375, -4500000.375, -4500000.375, -4500000.375, 0.0, 0.0, 0.0, 196.0, 0.5, 88.0, 0.0, 21.0, 116.0, 236.0, 0.0, 0.0, 0.0, 1.6298528440138617E9, 2021-08-24 18:54:04.013
78.0, -2437923.1875, -3109973.25, -3454808.25, -4500000.375, -4500000.375, -3294271.5, -3035163.375, -3454258.5, -4500000.375, -4500000.375, -4500000.375, -4500000.375, -4500000.375, -4500000.375, -4500000.375, -4500000.375, 0.0, 0.0, 0.0, 196.0, 19.5, 200.0, 0.0, 21.0, 116.0, 244.0, 0.0, 0.0, 0.0, 1.6298528440138683E9, 2021-08-24 18:54:04.013
80.0, -2430836.8125, -3103295.625, -3454384.5, -4500000.375, -4500000.375, -3290976.75, -3026488.5, -3454401.75, -4500000.375, -4500000.375, -4500000.375, -4500000.375, -4500000.375, -4500000.375, -4500000.375, -4500000.375, 0.0, 0.0, 0.0, 196.0, 0.0, 0.0, 0.0, 21.0, 116.0, 252.0, 0.0, 0.0, 0.0, 1.629852844013875E9, 2021-08-24 18:54:04.013
82.0, -2436987.1875, -3109071.5625, -3454365.75, -4500000.375, -4500000.375, -3293634.375, -3034598.4375, -3454096.5, -4500000.375, -4500000.375, -4500000.375, -4500000.375, -4500000.375, -4500000.375, -4500000.375, -4500000.375, 0.0, 0.0, 0.0, 196.0, 0.0, 0.0, 0.0, 21.0, 117.0, 4.0, 0.0, 0.0, 0.0, 1.6298528440138857E9, 2021-08-24 18:54:04.013
84.0, -2431814.8125, -3103817.625, -3454255.125, -4500000.375, -4500000.375, -3290855.625, -3026564.0625, -3454780.875, -4500000.375, -4500000.375, -4500000.375, -4500000.375, -4500000.375, -4500000.375, -4500000.375, -4500000.375, 0.0, 0.0, 0.0, 196.0, 0.0, 0.0, 0.0, 21.0, 117.0, 12.0, 0.0, 0.0, 0.0, 1.6298528440138924E9, 2021-08-24 18:54:04.013
86.0, -2436453.9375, -3108533.4375, -3454419.375, -4500000.375, -4500000.375, -3293680.125, -3034723.875, -3454720.5, -4500000.375, -4500000.375, -4500000.375, -4500000.375, -4500000.375, -4500000.375, -4500000.375, -4500000.375, 0.0, 0.0, 0.0, 196.0, 0.5, 96.0, 0.0, 21.0, 117.0, 20.0, 0.0, 0.0, 0.0, 1.629852844013899E9, 2021-08-24 18:54:04.013
88.0, -2432727.375, -3104337.9375, -3453843.375, -4500000.375, -4500000.375, -3290871.75, -3026780.8125, -3454623.375, -4500000.375, -4500000.375, -4500000.375, -4500000.375, -4500000.375, -4500000.375, -4500000.375, -4500000.375, 0.0, 0.0, 0.0, 196.0, 19.5, 208.0, 0.0, 21.0, 117.0, 28.0, 0.0, 0.0, 0.0, 1.6298528440139055E9, 2021-08-24 18:54:04.013
90.0, -2435490.0, -3107744.4375, -3454368.0, -4500000.375, -4500000.375, -3293434.875, -3034078.125, -3454611.0, -4500000.375, -4500000.375, -4500000.375, -4500000.375, -4500000.375, -4500000.375, -4500000.375, -4500000.375, 0.0, 0.0, 0.0, 196.0, 0.0, 0.0, 0.0, 21.0, 117.0, 36.0, 0.0, 0.0, 0.0, 1.629852844494017E9, 2021-08-24 18:54:04.494
92.0, -2433756.1875, -3105150.75, -3453945.375, -4500000.375, -4500000.375, -3291234.375, -3027342.0, -3454419.0, -4500000.375, -4500000.375, -4500000.375, -4500000.375, -4500000.375, -4500000.375, -4500000.375, -4500000.375, 0.0, 0.0, 0.0, 196.0, 0.0, 0.0, 0.0, 21.0, 117.0, 44.0, 0.0, 0.0, 0.0, 1.6298528444940248E9, 2021-08-24 18:54:04.494
94.0, -2434202.4375, -3106772.4375, -3454441.875, -4500000.375, -4500000.375, -3293488.125, -3033525.0, -3454592.625, -4500000.375, -4500000.375, -4500000.375, -4500000.375, -4500000.375, -4500000.375, -4500000.375, -4500000.375, 0.0, 0.0, 0.0, 196.0, 0.0, 0.0, 0.0, 21.0, 117.0, 52.0, 0.0, 0.0, 0.0, 1.6298528444940317E9, 2021-08-24 18:54:04.494
96.0, -2434645.125, -3106279.875, -3453969.0, -4500000.375, -4500000.375, -3291975.75, -3028604.25, -3454178.625, -4500000.375, -4500000.375, -4500000.375, -4500000.375, -4500000.375, -4500000.375, -4500000.375, -4500000.375, 0.0, 0.0, 0.0, 196.0, 0.5, 104.0, 0.0, 21.0, 117.0, 60.0, 0.0, 0.0, 0.0, 1.629852844494038E9, 2021-08-24 18:54:04.494
98.0, -2432824.3125, -3105827.25, -3454321.875, -4500000.375, -4500000.375, -3293194.5, -3032671.5, -3454332.0, -4500000.375, -4500000.375, -4500000.375, -4500000.375, -4500000.375, -4500000.375, -4500000.375, -4500000.375, 0.0, 0.0, 0.0, 196.0, 19.5, 176.0, 0.0, 21.0, 117.0, 68.0, 0.0, 0.0, 0.0, 1.6298528444940448E9, 2021-08-24 18:54:04.494
100.0, -2435801.0625, -3107345.8125, -3454279.875, -4500000.375, -4500000.375, -3292450.5, -3029682.9375, -3454342.875, -4500000.375, -4500000.375, -4500000.375, -4500000.375, -4500000.375, -4500000.375, -4500000.375, -4500000.375, 0.0, 0.0, 0.0, 196.0, 0.0, 0.0, 0.0, 21.0, 117.0, 76.0, 0.0, 0.0, 0.0, 1.6298528444940512E9, 2021-08-24 18:54:04.494
102.0, -2432247.75, -3104776.3125, -3454262.625, -4500000.375, -4500000.375, -3292571.25, -3031513.875, -3454730.625, -4500000.375, -4500000.375, -4500000.375, -4500000.375, -4500000.375, -4500000.375, -4500000.375, -4500000.375, 0.0, 0.0, 0.0, 196.0, 0.0, 0.0, 0.0, 21.0, 117.0, 84.0, 0.0, 0.0, 0.0, 1.629852844494058E9, 2021-08-24 18:54:04.494
104.0, -2436946.5, -3107628.5625, -3453712.5, -4500000.375, -4500000.375, -3292294.875, -3030231.75, -3454446.375, -4500000.375, -4500000.375, -4500000.375, -4500000.375, -4500000.375, -4500000.375, -4500000.375, -4500000.375, 0.0, 0.0, 0.0, 196.0, 0.0, 0.0, 0.0, 21.0, 117.0, 92.0, 0.0, 0.0, 0.0, 1.6298528444940715E9, 2021-08-24 18:54:04.494
106.0, -2431613.0625, -3104170.6875, -3454601.25, -4500000.375, -4500000.375, -3292727.25, -3030855.75, -3455603.25, -4500000.375, -4500000.375, -4500000.375, -4500000.375, -4500000.375, -4500000.375, -4500000.375, -4500000.375, 0.0, 0.0, 0.0, 196.0, 0.5, 120.0, 0.0, 21.0, 117.0, 100.0, 0.0, 0.0, 0.0, 1.629852844494078E9, 2021-08-24 18:54:04.494
108.0, -2437922.8125, -3108777.0, -3454202.25, -4500000.375, -4500000.375, -3293259.0, -3031975.6875, -3454885.125, -4500000.375, -4500000.375, -4500000.375, -4500000.375, -4500000.375, -4500000.375, -4500000.375, -4500000.375, 0.0, 0.0, 0.0, 196.0, 19.5, 152.0, 0.0, 21.0, 117.0, 108.0, 0.0, 0.0, 0.0, 1.6298528444940863E9, 2021-08-24 18:54:04.494
110.0, -2430797.8125, -3103386.375, -3454294.5, -4500000.375, -4500000.375, -3291837.375, -3029421.1875, -3455011.125, -4500000.375, -4500000.375, -4500000.375, -4500000.375, -4500000.375, -4500000.375, -4500000.375, -4500000.375, 0.0, 0.0, 0.0, 196.0, 0.0, 0.0, 0.0, 21.0, 117.0, 116.0, 0.0, 0.0, 0.0, 1.6298528444940927E9, 2021-08-24 18:54:04.494
112.0, -2438125.5, -3108935.8125, -3453573.0, -4500000.375, -4500000.375, -3292602.75, -3032072.25, -3453700.125, -4500000.375, -4500000.375, -4500000.375, -4500000.375, -4500000.375, -4500000.375, -4500000.375, -4500000.375, 0.0, 0.0, 0.0, 196.0, 0.0, 0.0, 0.0, 21.0, 117.0, 124.0, 0.0, 0.0, 0.0, 1.6298528444940994E9, 2021-08-24 18:54:04.494
114.0, -2430267.1875, -3102662.625, -3453787.125, -4500000.375, -4500000.375, -3290738.25, -3027969.5625, -3454511.625, -4500000.375, -4500000.375, -4500000.375, -4500000.375, -4500000.375, -4500000.375, -4500000.375, -4500000.375, 0.0, 0.0, 0.0, 196.0, 0.0, 0.0, 0.0, 21.0, 117.0, 132.0, 0.0, 0.0, 0.0, 1.629852844494106E9, 2021-08-24 18:54:04.494
116.0, -2438700.5625, -3109778.625, -3453925.5, -4500000.375, -4500000.375, -3293013.375, -3033362.4375, -3454353.0, -4500000.375, -4500000.375, -4500000.375, -4500000.375, -4500000.375, -4500000.375, -4500000.375, -4500000.375, 0.0, 0.0, 0.0, 196.0, 0.5, 64.0, 0.0, 21.0, 117.0, 140.0, 0.0, 0.0, 0.0, 1.6298528444941125E9, 2021-08-24 18:54:04.494
118.0, -2430322.5, -3102737.25, -3454070.625, -4500000.375, -4500000.375, -3290741.25, -3027475.5, -3455021.25, -4500000.375, -4500000.375, -4500000.375, -4500000.375, -4500000.375, -4500000.375, -4500000.375, -4500000.375, 0.0, 0.0, 0.0, 196.0, 19.5, 152.0, 0.0, 21.0, 117.0, 148.0, 0.0, 0.0, 0.0, 1.6298528444941192E9, 2021-08-24 18:54:04.494
120.0, -2438556.1875, -3110183.0625, -3454194.0, -4500000.375, -4500000.375, -3293446.125, -3034377.375, -3454530.0, -4500000.375, -4500000.375, -4500000.375, -4500000.375, -4500000.375, -4500000.375, -4500000.375, -4500000.375, 0.0, 0.0, 0.0, 196.0, 0.0, 0.0, 0.0, 21.0, 117.0, 156.0, 0.0, 0.0, 0.0, 1.6298528444941268E9, 2021-08-24 18:54:04.494
122.0, -2429797.3125, -3102498.5625, -3453547.875, -4500000.375, -4500000.375, -3290268.375, -3026637.5625, -3454243.875, -4500000.375, -4500000.375, -4500000.375, -4500000.375, -4500000.375, -4500000.375, -4500000.375, -4500000.375, 0.0, 0.0, 0.0, 196.0, 0.0, 0.0, 0.0, 21.0, 117.0, 164.0, 0.0, 0.0, 0.0, 1.6298528444941332E9, 2021-08-24 18:54:04.494
124.0, -2438034.375, -3110273.8125, -3454340.625, -4500000.375, -4500000.375, -3293856.0, -3034935.375, -3454230.0, -4500000.375, -4500000.375, -4500000.375, -4500000.375, -4500000.375, -4500000.375, -4500000.375, -4500000.375, 0.0, 0.0, 0.0, 196.0, 0.0, 0.0, 0.0, 21.0, 117.0, 172.0, 0.0, 0.0, 0.0, 1.62985284449414E9, 2021-08-24 18:54:04.494
126.0, -2430241.5, -3102861.1875, -3453751.5, -4500000.375, -4500000.375, -3290466.75, -3026471.25, -3454110.0, -4500000.375, -4500000.375, -4500000.375, -4500000.375, -4500000.375, -4500000.375, -4500000.375, -4500000.375, 0.0, 0.0, 0.0, 196.0, 0.5, 64.0, 0.0, 21.0, 117.0, 180.0, 0.0, 0.0, 0.0, 1.6298528444941466E9, 2021-08-24 18:54:04.494
128.0, -2437680.1875, -3109758.1875, -3454317.0, -4500000.375, -4500000.375, -3293917.125, -3035205.75, -3454236.0, -4500000.375, -4500000.375, -4500000.375, -4500000.375, -4500000.375, -4500000.375, -4500000.375, -4500000.375, 0.0, 0.0, 0.0, 196.0, 19.5, 144.0, 0.0, 21.0, 117.0, 188.0, 0.0, 0.0, 0.0, 1.6298528444941533E9, 2021-08-24 18:54:04.494
130.0, -2431098.1875, -3103301.625, -3453748.5, -4500000.375, -4500000.375, -3290565.375, -3026508.375, -3454437.0, -4500000.375, -4500000.375, -4500000.375, -4500000.375, -4500000.375, -4500000.375, -4500000.375, -4500000.375, 0.0, 0.0, 0.0, 196.0, 0.0, 0.0, 0.0, 21.0, 117.0, 196.0, 0.0, 0.0, 0.0, 1.62985284449416E9, 2021-08-24 18:54:04.494
132.0, -2436984.5625, -3109090.3125, -3454136.25, -4500000.375, -4500000.375, -3293674.5, -3034905.75, -3454435.5, -4500000.375, -4500000.375, -4500000.375, -4500000.375, -4500000.375, -4500000.375, -4500000.375, -4500000.375, 0.0, 0.0, 0.0, 196.0, 0.0, 0.0, 0.0, 21.0, 117.0, 204.0, 0.0, 0.0, 0.0, 1.6298528444941664E9, 2021-08-24 18:54:04.494
134.0, -2431767.5625, -3103794.0, -3453664.5, -4500000.375, -4500000.375, -3290674.125, -3026505.75, -3454544.25, -4500000.375, -4500000.375, -4500000.375, -4500000.375, -4500000.375, -4500000.375, -4500000.375, -4500000.375, 0.0, 0.0, 0.0, 196.0, 0.0, 0.0, 0.0, 21.0, 117.0, 212.0, 0.0, 0.0, 0.0, 1.629852844494173E9, 2021-08-24 18:54:04.494
136.0, -2436057.0, -3108248.625, -3454306.875, -4500000.375, -4500000.375, -3293827.5, -3034785.5625, -3454713.75, -4500000.375, -4500000.375, -4500000.375, -4500000.375, -4500000.375, -4500000.375, -4500000.375, -4500000.375, 0.0, 0.0, 0.0, 196.0, 0.5, 88.0, 0.0, 21.0, 117.0, 220.0, 0.0, 0.0, 0.0, 1.6298528444941795E9, 2021-08-24 18:54:04.494
138.0, -2433055.125, -3104775.1875, -3453953.25, -4500000.375, -4500000.375, -3291292.125, -3027512.0625, -3454647.375, -4500000.375, -4500000.375, -4500000.375, -4500000.375, -4500000.375, -4500000.375, -4500000.375, -4500000.375, 0.0, 0.0, 0.0, 196.0, 19.5, 136.0, 0.0, 21.0, 117.0, 228.0, 0.0, 0.0, 0.0, 1.629852844494186E9, 2021-08-24 18:54:04.494
140.0, -2435004.5625, -3107525.625, -3454043.25, -4500000.375, -4500000.375, -3293394.0, -3034260.9375, -3454324.5, -4500000.375, -4500000.375, -4500000.375, -4500000.375, -4500000.375, -4500000.375, -4500000.375, -4500000.375, 0.0, 0.0, 0.0, 196.0, 0.0, 0.0, 0.0, 21.0, 117.0, 236.0, 0.0, 0.0, 0.0, 1.6298528444941945E9, 2021-08-24 18:54:04.494
142.0, -2434142.4375, -3106246.6875, -3454215.75, -4500000.375, -4500000.375, -3291515.625, -3028144.5, -3454461.375, -4500000.375, -4500000.375, -4500000.375, -4500000.375, -4500000.375, -4500000.375, -4500000.375, -4500000.375, 0.0, 0.0, 0.0, 196.0, 0.0, 0.0, 0.0, 21.0, 117.0, 244.0, 0.0, 0.0, 0.0, 1.629852844494201E9, 2021-08-24 18:54:04.494
144.0, -2434107.0, -3107228.4375, -3454731.75, -4500000.375, -4500000.375, -3293230.5, -3033546.0, -3454579.125, -4500000.375, -4500000.375, -4500000.375, -4500000.375, -4500000.375, -4500000.375, -4500000.375, -4500000.375, 0.0, 0.0, 0.0, 196.0, 0.0, 0.0, 0.0, 21.0, 117.0, 252.0, 0.0, 0.0, 0.0, 1.6298528444942076E9, 2021-08-24 18:54:04.494
146.0, -2435381.0625, -3107248.6875, -3454435.875, -4500000.375, -4500000.375, -3292079.25, -3029094.0, -3454489.875, -4500000.375, -4500000.375, -4500000.375, -4500000.375, -4500000.375, -4500000.375, -4500000.375, -4500000.375, 0.0, 0.0, 0.0, 196.0, 0.5, 96.0, 0.0, 21.0, 118.0, 4.0, 0.0, 0.0, 0.0, 1.629852844494214E9, 2021-08-24 18:54:04.494
148.0, -2432713.875, -3105755.8125, -3454135.125, -4500000.375, -4500000.375, -3292583.625, -3032019.1875, -3454339.5, -4500000.375, -4500000.375, -4500000.375, -4500000.375, -4500000.375, -4500000.375, -4500000.375, -4500000.375, 0.0, 0.0, 0.0, 196.0, 19.5, 152.0, 0.0, 21.0, 118.0, 12.0, 0.0, 0.0, 0.0, 1.6298528444942207E9, 2021-08-24 18:54:04.494
150.0, -2436275.25, -3107730.0, -3454025.25, -4500000.375, -4500000.375, -3292227.75, -3029478.5625, -3454611.0, -4500000.375, -4500000.375, -4500000.375, -4500000.375, -4500000.375, -4500000.375, -4500000.375, -4500000.375, 0.0, 0.0, 0.0, 196.0, 0.0, 0.0, 0.0, 21.0, 118.0, 20.0, 0.0, 0.0, 0.0, 1.6298528444942272E9, 2021-08-24 18:54:04.494
152.0, -2432347.5, -3105358.875, -3454600.125, -4500000.375, -4500000.375, -3292870.125, -3031307.4375, -3455305.125, -4500000.375, -4500000.375, -4500000.375, -4500000.375, -4500000.375, -4500000.375, -4500000.375, -4500000.375, 0.0, 0.0, 0.0, 196.0, 0.0, 0.0, 0.0, 21.0, 118.0, 28.0, 0.0, 0.0, 0.0, 1.6298528444942338E9, 2021-08-24 18:54:04.494
154.0, -2437573.5, -3108722.8125, -3454253.625, -4500000.375, -4500000.375, -3292859.25, -3030848.625, -3454470.75, -4500000.375, -4500000.375, -4500000.375, -4500000.375, -4500000.375, -4500000.375, -4500000.375, -4500000.375, 0.0, 0.0, 0.0, 196.0, 0.0, 0.0, 0.0, 21.0, 118.0, 36.0, 0.0, 0.0, 0.0, 1.6298528444942403E9, 2021-08-24 18:54:04.494
156.0, -2431299.75, -3104277.9375, -3454263.375, -4500000.375, -4500000.375, -3291966.0, -3030061.6875, -3454495.5, -4500000.375, -4500000.375, -4500000.375, -4500000.375, -4500000.375, -4500000.375, -4500000.375, -4500000.375, 0.0, 0.0, 0.0, 196.0, 0.5, 64.0, 0.0, 21.0, 118.0, 44.0, 0.0, 0.0, 0.0, 1.6298528444942467E9, 2021-08-24 18:54:04.494
158.0, -2437993.5, -3109492.125, -3454260.0, -4500000.375, -4500000.375, -3293043.75, -3031944.1875, -3454209.75, -4500000.375, -4500000.375, -4500000.375, -4500000.375, -4500000.375, -4500000.375, -4500000.375, -4500000.375, 0.0, 0.0, 0.0, 196.0, 19.5, 144.0, 0.0, 21.0, 118.0, 52.0, 0.0, 0.0, 0.0, 1.6298528444942536E9, 2021-08-24 18:54:04.494
160.0, -2430449.0625, -3103721.0625, -3454337.25, -4500000.375, -4500000.375, -3291571.875, -3029037.75, -3454647.0, -4500000.375, -4500000.375, -4500000.375, -4500000.375, -4500000.375, -4500000.375, -4500000.375, -4500000.375, 0.0, 0.0, 0.0, 196.0, 0.0, 0.0, 0.0, 21.0, 118.0, 60.0, 0.0, 0.0, 0.0, 1.62985284449426E9, 2021-08-24 18:54:04.494
162.0, -2438255.8125, -3110147.0625, -3454516.5, -4500000.375, -4500000.375, -3293415.375, -3033028.3125, -3454127.25, -4500000.375, -4500000.375, -4500000.375, -4500000.375, -4500000.375, -4500000.375, -4500000.375, -4500000.375, 0.0, 0.0, 0.0, 196.0, 0.0, 0.0, 0.0, 21.0, 118.0, 68.0, 0.0, 0.0, 0.0, 1.6298528444942665E9, 2021-08-24 18:54:04.494
164.0, -2430030.5625, -3103191.1875, -3454318.125, -4500000.375, -4500000.375, -3291184.875, -3027894.5625, -3454422.75, -4500000.375, -4500000.375, -4500000.375, -4500000.375, -4500000.375, -4500000.375, -4500000.375, -4500000.375, 0.0, 0.0, 0.0, 196.0, 0.0, 0.0, 0.0, 21.0, 118.0, 76.0, 0.0, 0.0, 0.0, 1.6298528444942732E9, 2021-08-24 18:54:04.494
166.0, -2438814.375, -3110353.6875, -3454590.0, -4500000.375, -4500000.375, -3293625.375, -3033670.3125, -3454317.0, -4500000.375, -4500000.375, -4500000.375, -4500000.375, -4500000.375, -4500000.375, -4500000.375, -4500000.375, 0.0, 0.0, 0.0, 196.0, 0.5, 56.0, 0.0, 21.0, 118.0, 84.0, 0.0, 0.0, 0.0, 1.6298528444942799E9, 2021-08-24 18:54:04.494
168.0, -2430125.0625, -3102779.0625, -3454059.375, -4500000.375, -4500000.375, -3290546.25, -3026730.375, -3454374.75, -4500000.375, -4500000.375, -4500000.375, -4500000.375, -4500000.375, -4500000.375, -4500000.375, -4500000.375, 0.0, 0.0, 0.0, 196.0, 19.5, 184.0, 0.0, 21.0, 118.0, 92.0, 0.0, 0.0, 0.0, 1.6298528444942863E9, 2021-08-24 18:54:04.494
170.0, -2438962.3125, -3110687.25, -3454895.25, -4500000.375, -4500000.375, -3294013.5, -3034443.9375, -3454699.5, -4500000.375, -4500000.375, -4500000.375, -4500000.375, -4500000.375, -4500000.375, -4500000.375, -4500000.375, 0.0, 0.0, 0.0, 196.0, 0.0, 0.0, 0.0, 21.0, 118.0, 100.0, 0.0, 0.0, 0.0, 1.6298528444942927E9, 2021-08-24 18:54:04.494
172.0, -2430635.25, -3103303.125, -3454615.875, -4500000.375, -4500000.375, -3291062.625, -3026729.4375, -3454895.625, -4500000.375, -4500000.375, -4500000.375, -4500000.375, -4500000.375, -4500000.375, -4500000.375, -4500000.375, 0.0, 0.0, 0.0, 196.0, 0.0, 0.0, 0.0, 21.0, 118.0, 108.0, 0.0, 0.0, 0.0, 1.6298528444942994E9, 2021-08-24 18:54:04.494
174.0, -2438335.875, -3110392.875, -3454824.0, -4500000.375, -4500000.375, -3294275.625, -3035065.6875, -3454409.25, -4500000.375, -4500000.375, -4500000.375, -4500000.375, -4500000.375, -4500000.375, -4500000.375, -4500000.375, 0.0, 0.0, 0.0, 196.0, 0.0, 0.0, 0.0, 21.0, 118.0, 116.0, 0.0, 0.0, 0.0, 1.6298528444943087E9, 2021-08-24 18:54:04.494
176.0, -2430801.5625, -3103592.8125, -3454628.625, -4500000.375, -4500000.375, -3291333.75, -3026826.0, -3454660.875, -4500000.375, -4500000.375, -4500000.375, -4500000.375, -4500000.375, -4500000.375, -4500000.375, -4500000.375, 0.0, 0.0, 0.0, 196.0, 0.5, 72.0, 0.0, 21.0, 118.0, 124.0, 0.0, 0.0, 0.0, 1.6298528444943151E9, 2021-08-24 18:54:04.494
