%OpenBCI Raw EEG Data
%Number of channels = 16
%Sample Rate = 125 Hz
%Board = OpenBCI_GUI$BoardCytonSerialDaisy
Sample Index, EXG Channel 0, EXG Channel 1, EXG Channel 2, EXG Channel 3, EXG Channel 4, EXG Channel 5, EXG Channel 6, EXG Channel 7, EXG Channel 8, EXG Channel 9, EXG Channel 10, EXG Channel 11, EXG Channel 12, EXG Channel 13, EXG Channel 14, EXG Channel 15, Accel Channel 0, Accel Channel 1, Accel Channel 2, Other, Other, Other, Other, Other, Other, Other, Analog Channel 0, Analog Channel 1, Analog Channel 2, Timestamp, Timestamp (Formatted)
0.0, -1820205.1875, -4500000.375, -2418983.0625, -4500000.375, -4500000.375, -2239159.3125, -4500000.375, -835819.3125, 0.0, 0.0, 0.0, 0.0, 0.0, 0.0, 0.0, 0.0, 0.0, 0.0, 0.0, 192.0, 0.0, 0.0, 0.0, 0.0, 0.0, 0.0, 0.0, 0.0, 0.0, 1.6292670553826933E9, 2021-08-18 00:10:55.382
124.0, -1822476.375, -4500000.375, -2421964.6875, -4500000.375, -4500000.375, -2242260.9375, -4500000.375, -827124.65625, -4500000.375, -4500000.375, -4500000.375, -4500000.375, -4500000.375, -4500000.375, -4500000.375, -4500000.375, 0.05100000277161598, 0.46300002932548523, 0.19100001454353333, 192.0, 1.5, 24.0, 14.0, 120.0, 5.5, 120.0, 0.0, 0.0, 0.0, 1.6292670553827016E9, 2021-08-18 00:10:55.382
126.0, -1821078.0, -4500000.375, -2419139.8125, -4500000.375, -4500000.375, -2239373.8125, -4500000.375, -837028.96875, -4500000.375, -4500000.375, -4500000.375, -4500000.375, -4500000.375, -4500000.375, -4500000.375, -4500000.375, 0.05100000277161598, 0.46300002932548523, 0.19100001454353333, 192.0, 0.0, 0.0, 0.0, 0.0, 0.0, 0.0, 0.0, 0.0, 0.0, 1.6292670553827088E9, 2021-08-18 00:10:55.382
128.0, -1822372.875, -4500000.375, -2422613.25, -4500000.375, -4500000.375, -2242823.0625, -4500000.375, -826484.15625, -4500000.375, -4500000.375, -4500000.375, -4500000.375, -4500000.375, -4500000.375, -4500000.375, -4500000.375, 0.05100000277161598, 0.46300002932548523, 0.19100001454353333, 192.0, 0.0, 0.0, 0.0, 0.0, 0.0, 0.0, 0.0, 0.0, 0.0, 1.629267055382716E9, 2021-08-18 00:10:55.382
130.0, -1822149.1875, -4500000.375, -2419156.3125, -4500000.375, -4500000.375, -2239540.6875, -4500000.375, -838261.21875, -4500000.375, -4500000.375, -4500000.375, -4500000.375, -4500000.375, -4500000.375, -4500000.375, -4500000.375, 0.05100000277161598, 0.46300002932548523, 0.19100001454353333, 192.0, 0.0, 0.0, 0.0, 0.0, 0.0, 0.0, 0.0, 0.0, 0.0, 1.629267055382723E9, 2021-08-18 00:10:55.382
132.0, -1821323.0625, -4500000.375, -2422228.125, -4500000.375, -4500000.375, -2242362.375, -4500000.375, -825774.46875, -4500000.375, -4500000.375, -4500000.375, -4500000.375, -4500000.375, -4500000.375, -4500000.375, -4500000.375, 0.05100000277161598, 0.46300002932548523, 0.19100001454353333, 192.0, 0.0, 0.0, 0.0, 0.0, 0.0, 0.0, 0.0, 0.0, 0.0, 1.62926705538273E9, 2021-08-18 00:10:55.382
134.0, -1822499.4375, -4500000.375, -2418584.625, -4500000.375, -4500000.375, -2239104.5625, -4500000.375, -838638.28125, -4500000.375, -4500000.375, -4500000.375, -4500000.375, -4500000.375, -4500000.375, -4500000.375, -4500000.375, 0.08050000481307507, 0.6965000480413437, 0.2875000089406967, 192.0, 1.5, 56.0, 14.5, 8.0, 6.0, 0.0, 0.0, 0.0, 0.0, 1.6292670553827367E9, 2021-08-18 00:10:55.382
136.0, -1820805.9375, -4500000.375, -2422238.8125, -4500000.375, -4500000.375, -2242319.4375, -4500000.375, -825231.0, -4500000.375, -4500000.375, -4500000.375, -4500000.375, -4500000.375, -4500000.375, -4500000.375, -4500000.375, 0.08050000481307507, 0.6965000480413437, 0.2875000089406967, 192.0, 0.0, 0.0, 0.0, 0.0, 0.0, 0.0, 0.0, 0.0, 0.0, 1.629267055382744E9, 2021-08-18 00:10:55.382
138.0, -1823388.9375, -4500000.375, -2418703.125, -4500000.375, -4500000.375, -2239451.625, -4500000.375, -838948.875, -4500000.375, -4500000.375, -4500000.375, -4500000.375, -4500000.375, -4500000.375, -4500000.375, -4500000.375, 0.08050000481307507, 0.6965000480413437, 0.2875000089406967, 192.0, 0.0, 0.0, 0.0, 0.0, 0.0, 0.0, 0.0, 0.0, 0.0, 1.6292670553827507E9, 2021-08-18 00:10:55.382
140.0, -1819962.5625, -4500000.375, -2422027.5, -4500000.375, -4500000.375, -2242174.5, -4500000.375, -825655.875, -4500000.375, -4500000.375, -4500000.375, -4500000.375, -4500000.375, -4500000.375, -4500000.375, -4500000.375, 0.08050000481307507, 0.6965000480413437, 0.2875000089406967, 192.0, 0.0, 0.0, 0.0, 0.0, 0.0, 0.0, 0.0, 0.0, 0.0, 1.629267055382758E9, 2021-08-18 00:10:55.382
142.0, -1823864.25, -4500000.375, -2418965.4375, -4500000.375, -4500000.375, -2240073.9375, -4500000.375, -839009.53125, -4500000.375, -4500000.375, -4500000.375, -4500000.375, -4500000.375, -4500000.375, -4500000.375, -4500000.375, 0.08050000481307507, 0.6965000480413437, 0.2875000089406967, 192.0, 0.0, 0.0, 0.0, 0.0, 0.0, 0.0, 0.0, 0.0, 0.0, 1.6292670553827648E9, 2021-08-18 00:10:55.382
144.0, -1818976.6875, -4500000.375, -2421354.75, -4500000.375, -4500000.375, -2241639.75, -4500000.375, -826077.5625, -4500000.375, -4500000.375, -4500000.375, -4500000.375, -4500000.375, -4500000.375, -4500000.375, -4500000.375, 0.1080000028014183, 0.9320000410079956, 0.38600000739097595, 192.0, 1.5, 48.0, 14.5, 16.0, 6.0, 8.0, 0.0, 0.0, 0.0, 1.629267055382772E9, 2021-08-18 00:10:55.382
146.0, -1824267.0, -4500000.375, -2419407.375, -4500000.375, -4500000.375, -2240483.625, -4500000.375, -838101.375, -4500000.375, -4500000.375, -4500000.375, -4500000.375, -4500000.375, -4500000.375, -4500000.375, -4500000.375, 0.1080000028014183, 0.9320000410079956, 0.38600000739097595, 192.0, 0.0, 0.0, 0.0, 0.0, 0.0, 0.0, 0.0, 0.0, 0.0, 1.629267055382779E9, 2021-08-18 00:10:55.382
148.0, -1818665.0625, -4500000.375, -2421038.25, -4500000.375, -4500000.375, -2241232.5, -4500000.375, -827158.5, -4500000.375, -4500000.375, -4500000.375, -4500000.375, -4500000.375, -4500000.375, -4500000.375, -4500000.375, 0.1080000028014183, 0.9320000410079956, 0.38600000739097595, 192.0, 0.0, 0.0, 0.0, 0.0, 0.0, 0.0, 0.0, 0.0, 0.0, 1.629267055382786E9, 2021-08-18 00:10:55.382
150.0, -1824605.0625, -4500000.375, -2419494.9375, -4500000.375, -4500000.375, -2240636.0625, -4500000.375, -836917.40625, -4500000.375, -4500000.375, -4500000.375, -4500000.375, -4500000.375, -4500000.375, -4500000.375, -4500000.375, 0.1080000028014183, 0.9320000410079956, 0.38600000739097595, 192.0, 0.0, 0.0, 0.0, 0.0, 0.0, 0.0, 0.0, 0.0, 0.0, 1.6292670553827927E9, 2021-08-18 00:10:55.382
152.0, -1818786.1875, -4500000.375, -2420726.0625, -4500000.375, -4500000.375, -2240959.5, -4500000.375, -828392.25, -4500000.375, -4500000.375, -4500000.375, -4500000.375, -4500000.375, -4500000.375, -4500000.375, -4500000.375, 0.1080000028014183, 0.9320000410079956, 0.38600000739097595, 192.0, 0.0, 0.0, 0.0, 0.0, 0.0, 0.0, 0.0, 0.0, 0.0, 1.6292670553828E9, 2021-08-18 00:10:55.382
154.0, -1824497.25, -4500000.375, -2419637.0625, -4500000.375, -4500000.375, -2240869.5, -4500000.375, -835476.0, -4500000.375, -4500000.375, -4500000.375, -4500000.375, -4500000.375, -4500000.375, -4500000.375, -4500000.375, 0.10400000214576721, 0.9340000152587891, 0.3760000169277191, 192.0, 1.5, 32.0, 14.5, 24.0, 5.5, 96.0, 0.0, 0.0, 0.0, 1.6292670553828075E9, 2021-08-18 00:10:55.382
156.0, -1819040.4375, -4500000.375, -2420377.3125, -4500000.375, -4500000.375, -2240862.375, -4500000.375, -830370.09375, -4500000.375, -4500000.375, -4500000.375, -4500000.375, -4500000.375, -4500000.375, -4500000.375, -4500000.375, 0.10400000214576721, 0.9340000152587891, 0.3760000169277191, 192.0, 0.0, 0.0, 0.0, 0.0, 0.0, 0.0, 0.0, 0.0, 0.0, 1.6292670553828194E9, 2021-08-18 00:10:55.382
158.0, -1824585.75, -4500000.375, -2420109.5625, -4500000.375, -4500000.375, -2241513.1875, -4500000.375, -834041.53125, -4500000.375, -4500000.375, -4500000.375, -4500000.375, -4500000.375, -4500000.375, -4500000.375, -4500000.375, 0.10400000214576721, 0.9340000152587891, 0.3760000169277191, 192.0, 0.0, 0.0, 0.0, 0.0, 0.0, 0.0, 0.0, 0.0, 0.0, 1.6292670553828266E9, 2021-08-18 00:10:55.382
160.0, -1819194.0, -4500000.375, -2419668.75, -4500000.375, -4500000.375, -2240308.875, -4500000.375, -831902.25, -4500000.375, -4500000.375, -4500000.375, -4500000.375, -4500000.375, -4500000.375, -4500000.375, -4500000.375, 0.10400000214576721, 0.9340000152587891, 0.3760000169277191, 192.0, 0.0, 0.0, 0.0, 0.0, 0.0, 0.0, 0.0, 0.0, 0.0, 1.6292670553828468E9, 2021-08-18 00:10:55.382
162.0, -1824392.625, -4500000.375, -2420291.0625, -4500000.375, -4500000.375, -2241641.4375, -4500000.375, -832453.125, -4500000.375, -4500000.375, -4500000.375, -4500000.375, -4500000.375, -4500000.375, -4500000.375, -4500000.375, 0.10400000214576721, 0.9340000152587891, 0.3760000169277191, 192.0, 0.0, 0.0, 0.0, 0.0, 0.0, 0.0, 0.0, 0.0, 0.0, 1.629267055382854E9, 2021-08-18 00:10:55.382
164.0, -1818802.3125, -4500000.375, -2418670.3125, -4500000.375, -4500000.375, -2239317.0, -4500000.375, -833331.84375, -4500000.375, -4500000.375, -4500000.375, -4500000.375, -4500000.375, -4500000.375, -4500000.375, -4500000.375, 0.11000000685453415, 0.9300000667572021, 0.3760000169277191, 192.0, 1.5, 56.0, 14.5, 8.0, 5.5, 96.0, 0.0, 0.0, 0.0, 1.629267055382861E9, 2021-08-18 00:10:55.382
166.0, -1823841.75, -4500000.375, -2420733.5625, -4500000.375, -4500000.375, -2241925.125, -4500000.375, -830548.78125, -4500000.375, -4500000.375, -4500000.375, -4500000.375, -4500000.375, -4500000.375, -4500000.375, -4500000.375, 0.11000000685453415, 0.9300000667572021, 0.3760000169277191, 192.0, 0.0, 0.0, 0.0, 0.0, 0.0, 0.0, 0.0, 0.0, 0.0, 1.6292670553828676E9, 2021-08-18 00:10:55.382
168.0, -1820087.0625, -4500000.375, -2418827.625, -4500000.375, -4500000.375, -2239372.6875, -4500000.375, -835393.875, -4500000.375, -4500000.375, -4500000.375, -4500000.375, -4500000.375, -4500000.375, -4500000.375, -4500000.375, 0.11000000685453415, 0.9300000667572021, 0.3760000169277191, 192.0, 0.0, 0.0, 0.0, 0.0, 0.0, 0.0, 0.0, 0.0, 0.0, 1.6292670553828747E9, 2021-08-18 00:10:55.382
170.0, -1823982.1875, -4500000.375, -2421647.0625, -4500000.375, -4500000.375, -2242608.5625, -4500000.375, -829505.90625, -4500000.375, -4500000.375, -4500000.375, -4500000.375, -4500000.375, -4500000.375, -4500000.375, -4500000.375, 0.11000000685453415, 0.9300000667572021, 0.3760000169277191, 192.0, 0.0, 0.0, 0.0, 0.0, 0.0, 0.0, 0.0, 0.0, 0.0, 1.6292670553828816E9, 2021-08-18 00:10:55.382
172.0, -1820993.25, -4500000.375, -2419060.3125, -4500000.375, -4500000.375, -2239694.0625, -4500000.375, -836901.84375, -4500000.375, -4500000.375, -4500000.375, -4500000.375, -4500000.375, -4500000.375, -4500000.375, -4500000.375, 0.11000000685453415, 0.9300000667572021, 0.3760000169277191, 192.0, 0.0, 0.0, 0.0, 0.0, 0.0, 0.0, 0.0, 0.0, 0.0, 1.6292670553828883E9, 2021-08-18 00:10:55.382
174.0, -1823037.5625, -4500000.375, -2421855.1875, -4500000.375, -4500000.375, -2242776.0, -4500000.375, -827988.375, -4500000.375, -4500000.375, -4500000.375, -4500000.375, -4500000.375, -4500000.375, -4500000.375, -4500000.375, 0.1120000034570694, 0.9360000491142273, 0.3800000250339508, 192.0, 1.5, 64.0, 14.5, 32.0, 5.5, 112.0, 0.0, 0.0, 0.0, 1.6292670553828952E9, 2021-08-18 00:10:55.382
176.0, -1821285.5625, -4500000.375, -2418512.0625, -4500000.375, -4500000.375, -2239377.5625, -4500000.375, -837943.59375, -4500000.375, -4500000.375, -4500000.375, -4500000.375, -4500000.375, -4500000.375, -4500000.375, -4500000.375, 0.1120000034570694, 0.9360000491142273, 0.3800000250339508, 192.0, 0.0, 0.0, 0.0, 0.0, 0.0, 0.0, 0.0, 0.0, 0.0, 1.6292670553829021E9, 2021-08-18 00:10:55.382
178.0, -1821791.4375, -4500000.375, -2421517.875, -4500000.375, -4500000.375, -2242351.125, -4500000.375, -826661.71875, -4500000.375, -4500000.375, -4500000.375, -4500000.375, -4500000.375, -4500000.375, -4500000.375, -4500000.375, 0.1120000034570694, 0.9360000491142273, 0.3800000250339508, 192.0, 0.0, 0.0, 0.0, 0.0, 0.0, 0.0, 0.0, 0.0, 0.0, 1.629267055382909E9, 2021-08-18 00:10:55.382
180.0, -1822058.625, -4500000.375, -2418195.0, -4500000.375, -4500000.375, -2239224.75, -4500000.375, -838775.0625, -4500000.375, -4500000.375, -4500000.375, -4500000.375, -4500000.375, -4500000.375, -4500000.375, -4500000.375, 0.1120000034570694, 0.9360000491142273, 0.3800000250339508, 192.0, 0.0, 0.0, 0.0, 0.0, 0.0, 0.0, 0.0, 0.0, 0.0, 1.629267055382916E9, 2021-08-18 00:10:55.382
182.0, -1821622.875, -4500000.375, -2421967.3125, -4500000.375, -4500000.375, -2242867.125, -4500000.375, -826176.75, -4500000.375, -4500000.375, -4500000.375, -4500000.375, -4500000.375, -4500000.375, -4500000.375, -4500000.375, 0.1120000034570694, 0.9360000491142273, 0.3800000250339508, 192.0, 0.0, 0.0, 0.0, 0.0, 0.0, 0.0, 0.0, 0.0, 0.0, 1.6292670553829226E9, 2021-08-18 00:10:55.382
184.0, -1823022.0, -4500000.375, -2418084.0, -4500000.375, -4500000.375, -2239395.1875, -4500000.375, -839512.21875, -4500000.375, -4500000.375, -4500000.375, -4500000.375, -4500000.375, -4500000.375, -4500000.375, -4500000.375, 0.10600000619888306, 0.9340000152587891, 0.37800002098083496, 192.0, 1.5, 40.0, 14.5, 24.0, 5.5, 104.0, 0.0, 0.0, 0.0, 1.6292670553829296E9, 2021-08-18 00:10:55.382
186.0, -1820460.5625, -4500000.375, -2421494.8125, -4500000.375, -4500000.375, -2242296.375, -4500000.375, -826186.96875, -4500000.375, -4500000.375, -4500000.375, -4500000.375, -4500000.375, -4500000.375, -4500000.375, -4500000.375, 0.10600000619888306, 0.9340000152587891, 0.37800002098083496, 192.0, 0.0, 0.0, 0.0, 0.0, 0.0, 0.0, 0.0, 0.0, 0.0, 1.6292670553829365E9, 2021-08-18 00:10:55.382
188.0, -1823654.4375, -4500000.375, -2418516.375, -4500000.375, -4500000.375, -2239909.125, -4500000.375, -839612.53125, -4500000.375, -4500000.375, -4500000.375, -4500000.375, -4500000.375, -4500000.375, -4500000.375, -4500000.375, 0.10600000619888306, 0.9340000152587891, 0.37800002098083496, 192.0, 0.0, 0.0, 0.0, 0.0, 0.0, 0.0, 0.0, 0.0, 0.0, 1.6292670553829432E9, 2021-08-18 00:10:55.382
190.0, -1819658.4375, -4500000.375, -2421133.125, -4500000.375, -4500000.375, -2241881.0625, -4500000.375, -826068.375, -4500000.375, -4500000.375, -4500000.375, -4500000.375, -4500000.375, -4500000.375, -4500000.375, -4500000.375, 0.10600000619888306, 0.9340000152587891, 0.37800002098083496, 192.0, 0.0, 0.0, 0.0, 0.0, 0.0, 0.0, 0.0, 0.0, 0.0, 1.629267055382952E9, 2021-08-18 00:10:55.382
192.0, -1823894.25, -4500000.375, -2418435.375, -4500000.375, -4500000.375, -2239903.875, -4500000.375, -838680.1875, -4500000.375, -4500000.375, -4500000.375, -4500000.375, -4500000.375, -4500000.375, -4500000.375, -4500000.375, 0.10600000619888306, 0.9330000281333923, 0.3760000169277191, 192.0, 1.5, 40.0, 14.5, 16.0, 5.5, 88.0, 0.0, 0.0, 0.0, 1.629267055382959E9, 2021-08-18 00:10:55.382
194.0, -1819380.0, -4500000.375, -2420978.0625, -4500000.375, -4500000.375, -2241667.125, -4500000.375, -826678.875, -4500000.375, -4500000.375, -4500000.375, -4500000.375, -4500000.375, -4500000.375, -4500000.375, -4500000.375, 0.10600000619888306, 0.9330000281333923, 0.3760000169277191, 192.0, 0.0, 0.0, 0.0, 0.0, 0.0, 0.0, 0.0, 0.0, 0.0, 1.6292670553829658E9, 2021-08-18 00:10:55.382
196.0, -1824983.8125, -4500000.375, -2419021.6875, -4500000.375, -4500000.375, -2240750.8125, -4500000.375, -838516.5, -4500000.375, -4500000.375, -4500000.375, -4500000.375, -4500000.375, -4500000.375, -4500000.375, -4500000.375, 0.10600000619888306, 0.9330000281333923, 0.3760000169277191, 192.0, 0.0, 0.0, 0.0, 0.0, 0.0, 0.0, 0.0, 0.0, 0.0, 1.6292670553829727E9, 2021-08-18 00:10:55.382
198.0, -1819285.6875, -4500000.375, -2420675.0625, -4500000.375, -4500000.375, -2241593.0625, -4500000.375, -828308.0625, -4500000.375, -4500000.375, -4500000.375, -4500000.375, -4500000.375, -4500000.375, -4500000.375, -4500000.375, 0.10600000619888306, 0.9330000281333923, 0.3760000169277191, 192.0, 0.0, 0.0, 0.0, 0.0, 0.0, 0.0, 0.0, 0.0, 0.0, 1.6292670553829796E9, 2021-08-18 00:10:55.382
200.0, -1824909.1875, -4500000.375, -2419075.3125, -4500000.375, -4500000.375, -2241039.0, -4500000.375, -837419.53125, -4500000.375, -4500000.375, -4500000.375, -4500000.375, -4500000.375, -4500000.375, -4500000.375, -4500000.375, 0.10600000619888306, 0.9330000281333923, 0.3760000169277191, 192.0, 0.0, 0.0, 0.0, 0.0, 0.0, 0.0, 0.0, 0.0, 0.0, 1.6292670553829865E9, 2021-08-18 00:10:55.382
202.0, -1818814.125, -4500000.375, -2419914.375, -4500000.375, -4500000.375, -2240888.25, -4500000.375, -829311.1875, -4500000.375, -4500000.375, -4500000.375, -4500000.375, -4500000.375, -4500000.375, -4500000.375, -4500000.375, 0.10600000619888306, 0.932500034570694, 0.37700001895427704, 192.0, 1.5, 40.0, 14.5, 16.0, 5.5, 104.0, 0.0, 0.0, 0.0, 1.6292670553829937E9, 2021-08-18 00:10:55.382
204.0, -1824768.5625, -4500000.375, -2419246.5, -4500000.375, -4500000.375, -2241173.0625, -4500000.375, -835626.75, -4500000.375, -4500000.375, -4500000.375, -4500000.375, -4500000.375, -4500000.375, -4500000.375, -4500000.375, 0.10600000619888306, 0.932500034570694, 0.37700001895427704, 192.0, 0.0, 0.0, 0.0, 0.0, 0.0, 0.0, 0.0, 0.0, 0.0, 1.6292670553830004E9, 2021-08-18 00:10:55.383
206.0, -1819159.6875, -4500000.375, -2419797.9375, -4500000.375, -4500000.375, -2240963.8125, -4500000.375, -831150.65625, -4500000.375, -4500000.375, -4500000.375, -4500000.375, -4500000.375, -4500000.375, -4500000.375, -4500000.375, 0.10600000619888306, 0.932500034570694, 0.37700001895427704, 192.0, 0.0, 0.0, 0.0, 0.0, 0.0, 0.0, 0.0, 0.0, 0.0, 1.6292670553830073E9, 2021-08-18 00:10:55.383
208.0, -1824622.125, -4500000.375, -2419708.3125, -4500000.375, -4500000.375, -2241723.375, -4500000.375, -834411.65625, -4500000.375, -4500000.375, -4500000.375, -4500000.375, -4500000.375, -4500000.375, -4500000.375, -4500000.375, 0.10600000619888306, 0.932500034570694, 0.37700001895427704, 192.0, 0.0, 0.0, 0.0, 0.0, 0.0, 0.0, 0.0, 0.0, 0.0, 1.629267055383014E9, 2021-08-18 00:10:55.383
210.0, -1819578.5625, -4500000.375, -2419533.5625, -4500000.375, -4500000.375, -2240669.25, -4500000.375, -833239.59375, -4500000.375, -4500000.375, -4500000.375, -4500000.375, -4500000.375, -4500000.375, -4500000.375, -4500000.375, 0.10600000619888306, 0.932500034570694, 0.37700001895427704, 192.0, 0.0, 0.0, 0.0, 0.0, 0.0, 0.0, 0.0, 0.0, 0.0, 1.6292670553830206E9, 2021-08-18 00:10:55.383
212.0, -1824667.3125, -4500000.375, -2420361.1875, -4500000.375, -4500000.375, -2242125.1875, -4500000.375, -832645.6875, -4500000.375, -4500000.375, -4500000.375, -4500000.375, -4500000.375, -4500000.375, -4500000.375, -4500000.375, 0.10400000587105751, 0.9302500337362289, 0.37950002402067184, 192.0, 1.5, 24.0, 14.5, 0.0, 5.5, 120.0, 0.0, 0.0, 0.0, 1.6292670553830273E9, 2021-08-18 00:10:55.383
214.0, -1820108.625, -4500000.375, -2419026.0, -4500000.375, -4500000.375, -2240255.8125, -4500000.375, -834991.59375, -4500000.375, -4500000.375, -4500000.375, -4500000.375, -4500000.375, -4500000.375, -4500000.375, -4500000.375, 0.10400000587105751, 0.9302500337362289, 0.37950002402067184, 192.0, 0.0, 0.0, 0.0, 0.0, 0.0, 0.0, 0.0, 0.0, 0.0, 1.6292670553830345E9, 2021-08-18 00:10:55.383
216.0, -1824519.1875, -4500000.375, -2420703.5625, -4500000.375, -4500000.375, -2242621.5, -4500000.375, -831142.03125, -4500000.375, -4500000.375, -4500000.375, -4500000.375, -4500000.375, -4500000.375, -4500000.375, -4500000.375, 0.10400000587105751, 0.9302500337362289, 0.37950002402067184, 192.0, 0.0, 0.0, 0.0, 0.0, 0.0, 0.0, 0.0, 0.0, 0.0, 1.629267055383041E9, 2021-08-18 00:10:55.383
218.0, -1820441.25, -4500000.375, -2418247.6875, -4500000.375, -4500000.375, -2239782.0, -4500000.375, -836364.84375, -4500000.375, -4500000.375, -4500000.375, -4500000.375, -4500000.375, -4500000.375, -4500000.375, -4500000.375, 0.10400000587105751, 0.9302500337362289, 0.37950002402067184, 192.0, 0.0, 0.0, 0.0, 0.0, 0.0, 0.0, 0.0, 0.0, 0.0, 1.6292670553830478E9, 2021-08-18 00:10:55.383
220.0, -1823584.125, -4500000.375, -2420954.625, -4500000.375, -4500000.375, -2242920.1875, -4500000.375, -829592.8125, -4500000.375, -4500000.375, -4500000.375, -4500000.375, -4500000.375, -4500000.375, -4500000.375, -4500000.375, 0.10400000587105751, 0.9302500337362289, 0.37950002402067184, 192.0, 0.0, 0.0, 0.0, 0.0, 0.0, 0.0, 0.0, 0.0, 0.0, 1.6292670553830547E9, 2021-08-18 00:10:55.383
222.0, -1821050.0625, -4500000.375, -2418148.875, -4500000.375, -4500000.375, -2240040.0, -4500000.375, -837838.5, -4500000.375, -4500000.375, -4500000.375, -4500000.375, -4500000.375, -4500000.375, -4500000.375, -4500000.375, 0.10100000537931919, 0.9291250333189964, 0.381750013679266, 192.0, 1.5, 8.0, 14.5, 0.0, 6.0, 0.0, 0.0, 0.0, 0.0, 1.6292670553830616E9, 2021-08-18 00:10:55.383
224.0, -1822677.0, -4500000.375, -2421156.75, -4500000.375, -4500000.375, -2243271.0, -4500000.375, -828214.21875, -4500000.375, -4500000.375, -4500000.375, -4500000.375, -4500000.375, -4500000.375, -4500000.375, -4500000.375, 0.10100000537931919, 0.9291250333189964, 0.381750013679266, 192.0, 0.0, 0.0, 0.0, 0.0, 0.0, 0.0, 0.0, 0.0, 0.0, 1.62926705538307E9, 2021-08-18 00:10:55.383
226.0, -1821726.0, -4500000.375, -2417907.0, -4500000.375, -4500000.375, -2240036.25, -4500000.375, -838999.3125, -4500000.375, -4500000.375, -4500000.375, -4500000.375, -4500000.375, -4500000.375, -4500000.375, -4500000.375, 0.10100000537931919, 0.9291250333189964, 0.381750013679266, 192.0, 0.0, 0.0, 0.0, 0.0, 0.0, 0.0, 0.0, 0.0, 0.0, 1.629267055383077E9, 2021-08-18 00:10:55.383
228.0, -1821701.8125, -4500000.375, -2420868.75, -4500000.375, -4500000.375, -2242833.375, -4500000.375, -827050.125, -4500000.375, -4500000.375, -4500000.375, -4500000.375, -4500000.375, -4500000.375, -4500000.375, -4500000.375, 0.10100000537931919, 0.9291250333189964, 0.381750013679266, 192.0, 0.0, 0.0, 0.0, 0.0, 0.0, 0.0, 0.0, 0.0, 0.0, 1.6292670553830836E9, 2021-08-18 00:10:55.383
230.0, -1822225.875, -4500000.375, -2417376.9375, -4500000.375, -4500000.375, -2239598.0625, -4500000.375, -839559.375, -4500000.375, -4500000.375, -4500000.375, -4500000.375, -4500000.375, -4500000.375, -4500000.375, -4500000.375, 0.10100000537931919, 0.9291250333189964, 0.381750013679266, 192.0, 0.0, 0.0, 0.0, 0.0, 0.0, 0.0, 0.0, 0.0, 0.0, 1.6292670553830905E9, 2021-08-18 00:10:55.383
232.0, -1821295.125, -4500000.375, -2420973.9375, -4500000.375, -4500000.375, -2242784.0625, -4500000.375, -826859.15625, -4500000.375, -4500000.375, -4500000.375, -4500000.375, -4500000.375, -4500000.375, -4500000.375, -4500000.375, 0.09850000310689211, 0.9295625500380993, 0.38387501053512096, 192.0, 1.5, 0.0, 14.5, 8.0, 6.0, 8.0, 0.0, 0.0, 0.0, 1.6292670553830972E9, 2021-08-18 00:10:55.383
234.0, -1823868.0, -4500000.375, -2417954.8125, -4500000.375, -4500000.375, -2240242.875, -4500000.375, -840464.90625, -4500000.375, -4500000.375, -4500000.375, -4500000.375, -4500000.375, -4500000.375, -4500000.375, -4500000.375, 0.09850000310689211, 0.9295625500380993, 0.38387501053512096, 192.0, 0.0, 0.0, 0.0, 0.0, 0.0, 0.0, 0.0, 0.0, 0.0, 1.629267055383104E9, 2021-08-18 00:10:55.383
236.0, -1820897.625, -4500000.375, -2421046.3125, -4500000.375, -4500000.375, -2242914.9375, -4500000.375, -827061.375, -4500000.375, -4500000.375, -4500000.375, -4500000.375, -4500000.375, -4500000.375, -4500000.375, -4500000.375, 0.09850000310689211, 0.9295625500380993, 0.38387501053512096, 192.0, 0.0, 0.0, 0.0, 0.0, 0.0, 0.0, 0.0, 0.0, 0.0, 1.6292670553831108E9, 2021-08-18 00:10:55.383
238.0, -1824283.6875, -4500000.375, -2418086.8125, -4500000.375, -4500000.375, -2240822.25, -4500000.375, -840412.875, -4500000.375, -4500000.375, -4500000.375, -4500000.375, -4500000.375, -4500000.375, -4500000.375, -4500000.375, 0.09850000310689211, 0.9295625500380993, 0.38387501053512096, 192.0, 0.0, 0.0, 0.0, 0.0, 0.0, 0.0, 0.0, 0.0, 0.0, 1.6292670553831177E9, 2021-08-18 00:10:55.383
240.0, -1820315.0625, -4500000.375, -2421209.8125, -4500000.375, -4500000.375, -2243164.875, -4500000.375, -827380.03125, -4500000.375, -4500000.375, -4500000.375, -4500000.375, -4500000.375, -4500000.375, -4500000.375, -4500000.375, 0.09850000310689211, 0.9295625500380993, 0.38387501053512096, 192.0, 0.0, 0.0, 0.0, 0.0, 0.0, 0.0, 0.0, 0.0, 0.0, 1.6292670553831244E9, 2021-08-18 00:10:55.383
242.0, -1824526.125, -4500000.375, -2418292.125, -4500000.375, -4500000.375, -2241006.75, -4500000.375, -839745.0, -4500000.375, -4500000.375, -4500000.375, -4500000.375, -4500000.375, -4500000.375, -4500000.375, -4500000.375, 0.09600000083446503, 0.9320000410079956, 0.3840000033378601, 192.0, 1.5, 0.0, 14.5, 16.0, 6.0, 0.0, 0.0, 0.0, 0.0, 1.629267055383131E9, 2021-08-18 00:10:55.383
244.0, -1819564.125, -4500000.375, -2420494.3125, -4500000.375, -4500000.375, -2242308.75, -4500000.375, -827908.40625, -4500000.375, -4500000.375, -4500000.375, -4500000.375, -4500000.375, -4500000.375, -4500000.375, -4500000.375, 0.09600000083446503, 0.9320000410079956, 0.3840000033378601, 192.0, 0.0, 0.0, 0.0, 0.0, 0.0, 0.0, 0.0, 0.0, 0.0, 1.6292670553831377E9, 2021-08-18 00:10:55.383
0.0, -915759.84375, -2250000.1875, -1197884.8125, -2250000.1875, -2250000.1875, -1128993.9375, -2250000.1875, -427960.453125, -2250000.1875, -2250000.1875, -2250000.1875, -2250000.1875, -2250000.1875, -2250000.1875, -2250000.1875, -2250000.1875, 0.09800000488758087, 0.9320000410079956, 0.3760000169277191, 192.0, 1.5, 8.0, 14.5, 16.0, 5.5, 96.0, 0.0, 0.0, 0.0, 1.6292670554501688E9, 2021-08-18 00:10:55.450
2.0, -1827170.25, -4500000.375, -2394248.8125, -4500000.375, -4500000.375, -2255794.875, -4500000.375, -859317.09375, -4500000.375, -4500000.375, -4500000.375, -4500000.375, -4500000.375, -4500000.375, -4500000.375, -4500000.375, 0.09800000488758087, 0.9320000410079956, 0.3760000169277191, 192.0, 0.0, 0.0, 0.0, 0.0, 0.0, 0.0, 0.0, 0.0, 0.0, 1.6292670559303632E9, 2021-08-18 00:10:55.930
4.0, -1828444.3125, -4500000.375, -2396979.9375, -4500000.375, -4500000.375, -2258703.9375, -4500000.375, -849759.28125, -4500000.375, -4500000.375, -4500000.375, -4500000.375, -4500000.375, -4500000.375, -4500000.375, -4500000.375, 0.09800000488758087, 0.9320000410079956, 0.3760000169277191, 192.0, 0.0, 0.0, 0.0, 0.0, 0.0, 0.0, 0.0, 0.0, 0.0, 1.6292670559305143E9, 2021-08-18 00:10:55.930
6.0, -1827969.5625, -4500000.375, -2394149.0625, -4500000.375, -4500000.375, -2255829.75, -4500000.375, -860555.71875, -4500000.375, -4500000.375, -4500000.375, -4500000.375, -4500000.375, -4500000.375, -4500000.375, -4500000.375, 0.09700000286102295, 0.9360000491142273, 0.37700001895427704, 192.0, 1.5, 0.0, 14.5, 48.0, 5.5, 104.0, 0.0, 0.0, 0.0, 1.6292670559305668E9, 2021-08-18 00:10:55.930
8.0, -1827971.8125, -4500000.375, -2397477.75, -4500000.375, -4500000.375, -2258991.0, -4500000.375, -849329.0625, -4500000.375, -4500000.375, -4500000.375, -4500000.375, -4500000.375, -4500000.375, -4500000.375, -4500000.375, 0.09700000286102295, 0.9360000491142273, 0.37700001895427704, 192.0, 0.0, 0.0, 0.0, 0.0, 0.0, 0.0, 0.0, 0.0, 0.0, 1.6292670559305756E9, 2021-08-18 00:10:55.930
10.0, -1828680.9375, -4500000.375, -2394057.9375, -4500000.375, -4500000.375, -2255995.5, -4500000.375, -861212.34375, -4500000.375, -4500000.375, -4500000.375, -4500000.375, -4500000.375, -4500000.375, -4500000.375, -4500000.375, 0.09700000286102295, 0.9360000491142273, 0.37700001895427704, 192.0, 0.0, 0.0, 0.0, 0.0, 0.0, 0.0, 0.0, 0.0, 0.0, 1.6292670559305847E9, 2021-08-18 00:10:55.930
12.0, -1826640.375, -4500000.375, -2396742.1875, -4500000.375, -4500000.375, -2258268.375, -4500000.375, -848442.84375, -4500000.375, -4500000.375, -4500000.375, -4500000.375, -4500000.375, -4500000.375, -4500000.375, -4500000.375, 0.09700000286102295, 0.9360000491142273, 0.37700001895427704, 192.0, 0.0, 0.0, 0.0, 0.0, 0.0, 0.0, 0.0, 0.0, 0.0, 1.6292670559305935E9, 2021-08-18 00:10:55.930
14.0, -1828301.0625, -4500000.375, -2393023.6875, -4500000.375, -4500000.375, -2255030.4375, -4500000.375, -860610.9375, -4500000.375, -4500000.375, -4500000.375, -4500000.375, -4500000.375, -4500000.375, -4500000.375, -4500000.375, 0.09700000286102295, 0.9360000491142273, 0.37700001895427704, 192.0, 0.0, 0.0, 0.0, 0.0, 0.0, 0.0, 0.0, 0.0, 0.0, 1.6292670559306123E9, 2021-08-18 00:10:55.930
16.0, -1826188.6875, -4500000.375, -2397210.5625, -4500000.375, -4500000.375, -2258643.9375, -4500000.375, -848194.5, -4500000.375, -4500000.375, -4500000.375, -4500000.375, -4500000.375, -4500000.375, -4500000.375, -4500000.375, 0.09150000289082527, 0.937000036239624, 0.3765000179409981, 192.0, 1.0, 88.0, 14.5, 40.0, 5.5, 96.0, 0.0, 0.0, 0.0, 1.629267055930637E9, 2021-08-18 00:10:55.930
18.0, -1829672.25, -4500000.375, -2394014.4375, -4500000.375, -4500000.375, -2256111.375, -4500000.375, -860965.59375, -4500000.375, -4500000.375, -4500000.375, -4500000.375, -4500000.375, -4500000.375, -4500000.375, -4500000.375, 0.09150000289082527, 0.937000036239624, 0.3765000179409981, 192.0, 0.0, 0.0, 0.0, 0.0, 0.0, 0.0, 0.0, 0.0, 0.0, 1.6292670559306467E9, 2021-08-18 00:10:55.930
20.0, -1825179.0, -4500000.375, -2396240.625, -4500000.375, -4500000.375, -2257612.875, -4500000.375, -848104.875, -4500000.375, -4500000.375, -4500000.375, -4500000.375, -4500000.375, -4500000.375, -4500000.375, -4500000.375, 0.09150000289082527, 0.937000036239624, 0.3765000179409981, 192.0, 0.0, 0.0, 0.0, 0.0, 0.0, 0.0, 0.0, 0.0, 0.0, 1.6292670559306567E9, 2021-08-18 00:10:55.930
22.0, -1830317.625, -4500000.375, -2394147.0, -4500000.375, -4500000.375, -2256386.4375, -4500000.375, -860315.4375, -4500000.375, -4500000.375, -4500000.375, -4500000.375, -4500000.375, -4500000.375, -4500000.375, -4500000.375, 0.09150000289082527, 0.937000036239624, 0.3765000179409981, 192.0, 0.0, 0.0, 0.0, 0.0, 0.0, 0.0, 0.0, 0.0, 0.0, 1.62926705593067E9, 2021-08-18 00:10:55.930
24.0, -1825585.125, -4500000.375, -2396862.375, -4500000.375, -4500000.375, -2258267.8125, -4500000.375, -849583.875, -4500000.375, -4500000.375, -4500000.375, -4500000.375, -4500000.375, -4500000.375, -4500000.375, -4500000.375, 0.09150000289082527, 0.937000036239624, 0.3765000179409981, 192.0, 0.0, 0.0, 0.0, 0.0, 0.0, 0.0, 0.0, 0.0, 0.0, 1.6292670559306788E9, 2021-08-18 00:10:55.930
26.0, -1830486.0, -4500000.375, -2394543.9375, -4500000.375, -4500000.375, -2256847.3125, -4500000.375, -859459.78125, -4500000.375, -4500000.375, -4500000.375, -4500000.375, -4500000.375, -4500000.375, -4500000.375, -4500000.375, 0.08675000257790089, 0.9375000298023224, 0.3772500194609165, 192.0, 1.0, 72.0, 14.5, 40.0, 5.5, 104.0, 0.0, 0.0, 0.0, 1.629267055930688E9, 2021-08-18 00:10:55.930
28.0, -1824947.25, -4500000.375, -2396097.9375, -4500000.375, -4500000.375, -2257424.0625, -4500000.375, -850552.125, -4500000.375, -4500000.375, -4500000.375, -4500000.375, -4500000.375, -4500000.375, -4500000.375, -4500000.375, 0.08675000257790089, 0.9375000298023224, 0.3772500194609165, 192.0, 0.0, 0.0, 0.0, 0.0, 0.0, 0.0, 0.0, 0.0, 0.0, 1.6292670559306967E9, 2021-08-18 00:10:55.930
30.0, -1830783.1875, -4500000.375, -2394985.3125, -4500000.375, -4500000.375, -2257284.0, -4500000.375, -858418.03125, -4500000.375, -4500000.375, -4500000.375, -4500000.375, -4500000.375, -4500000.375, -4500000.375, -4500000.375, 0.08675000257790089, 0.9375000298023224, 0.3772500194609165, 192.0, 0.0, 0.0, 0.0, 0.0, 0.0, 0.0, 0.0, 0.0, 0.0, 1.6292670559307067E9, 2021-08-18 00:10:55.930
32.0, -1824829.3125, -4500000.375, -2395531.5, -4500000.375, -4500000.375, -2256772.3125, -4500000.375, -851962.5, -4500000.375, -4500000.375, -4500000.375, -4500000.375, -4500000.375, -4500000.375, -4500000.375, -4500000.375, 0.08675000257790089, 0.9375000298023224, 0.3772500194609165, 192.0, 0.0, 0.0, 0.0, 0.0, 0.0, 0.0, 0.0, 0.0, 0.0, 1.629267055930715E9, 2021-08-18 00:10:55.930
34.0, -1830344.4375, -4500000.375, -2395111.5, -4500000.375, -4500000.375, -2257254.9375, -4500000.375, -856927.78125, -4500000.375, -4500000.375, -4500000.375, -4500000.375, -4500000.375, -4500000.375, -4500000.375, -4500000.375, 0.08675000257790089, 0.9375000298023224, 0.3772500194609165, 192.0, 0.0, 0.0, 0.0, 0.0, 0.0, 0.0, 0.0, 0.0, 0.0, 1.6292670559307237E9, 2021-08-18 00:10:55.930
36.0, -1825053.5625, -4500000.375, -2395260.5625, -4500000.375, -4500000.375, -2256462.1875, -4500000.375, -853774.03125, -4500000.375, -4500000.375, -4500000.375, -4500000.375, -4500000.375, -4500000.375, -4500000.375, -4500000.375, 0.08537500444799662, 0.9367500394582748, 0.374625014141202, 192.0, 1.0, 80.0, 14.5, 32.0, 5.5, 80.0, 0.0, 0.0, 0.0, 1.629267055930732E9, 2021-08-18 00:10:55.930
38.0, -1830648.5625, -4500000.375, -2395948.3125, -4500000.375, -4500000.375, -2257950.75, -4500000.375, -855274.40625, -4500000.375, -4500000.375, -4500000.375, -4500000.375, -4500000.375, -4500000.375, -4500000.375, -4500000.375, 0.08537500444799662, 0.9367500394582748, 0.374625014141202, 192.0, 0.0, 0.0, 0.0, 0.0, 0.0, 0.0, 0.0, 0.0, 0.0, 1.62926705593074E9, 2021-08-18 00:10:55.930
40.0, -1825385.625, -4500000.375, -2394734.8125, -4500000.375, -4500000.375, -2255951.4375, -4500000.375, -855155.34375, -4500000.375, -4500000.375, -4500000.375, -4500000.375, -4500000.375, -4500000.375, -4500000.375, -4500000.375, 0.08537500444799662, 0.9367500394582748, 0.374625014141202, 192.0, 0.0, 0.0, 0.0, 0.0, 0.0, 0.0, 0.0, 0.0, 0.0, 1.6292670559307487E9, 2021-08-18 00:10:55.930
42.0, -1829987.0625, -4500000.375, -2395992.75, -4500000.375, -4500000.375, -2258000.625, -4500000.375, -853599.1875, -4500000.375, -4500000.375, -4500000.375, -4500000.375, -4500000.375, -4500000.375, -4500000.375, -4500000.375, 0.08537500444799662, 0.9367500394582748, 0.374625014141202, 192.0, 0.0, 0.0, 0.0, 0.0, 0.0, 0.0, 0.0, 0.0, 0.0, 1.62926705593077E9, 2021-08-18 00:10:55.930
44.0, -1825746.5625, -4500000.375, -2394239.25, -4500000.375, -4500000.375, -2255754.0, -4500000.375, -856704.5625, -4500000.375, -4500000.375, -4500000.375, -4500000.375, -4500000.375, -4500000.375, -4500000.375, -4500000.375, 0.08537500444799662, 0.9367500394582748, 0.374625014141202, 192.0, 0.0, 0.0, 0.0, 0.0, 0.0, 0.0, 0.0, 0.0, 0.0, 1.6292670559307969E9, 2021-08-18 00:10:55.930
46.0, -1829778.0, -4500000.375, -2396767.5, -4500000.375, -4500000.375, -2258837.4375, -4500000.375, -852344.4375, -4500000.375, -4500000.375, -4500000.375, -4500000.375, -4500000.375, -4500000.375, -4500000.375, -4500000.375, 0.0856875036843121, 0.9343750402331352, 0.37531251553446054, 192.0, 1.0, 88.0, 14.5, 16.0, 5.5, 96.0, 0.0, 0.0, 0.0, 1.6292670559308052E9, 2021-08-18 00:10:55.930
48.0, -1826425.6875, -4500000.375, -2394229.5, -4500000.375, -4500000.375, -2256011.625, -4500000.375, -858679.78125, -4500000.375, -4500000.375, -4500000.375, -4500000.375, -4500000.375, -4500000.375, -4500000.375, -4500000.375, 0.0856875036843121, 0.9343750402331352, 0.37531251553446054, 192.0, 0.0, 0.0, 0.0, 0.0, 0.0, 0.0, 0.0, 0.0, 0.0, 1.6292670559308162E9, 2021-08-18 00:10:55.930
50.0, -1827884.25, -4500000.375, -2396050.3125, -4500000.375, -4500000.375, -2258032.3125, -4500000.375, -850381.59375, -4500000.375, -4500000.375, -4500000.375, -4500000.375, -4500000.375, -4500000.375, -4500000.375, -4500000.375, 0.0856875036843121, 0.9343750402331352, 0.37531251553446054, 192.0, 0.0, 0.0, 0.0, 0.0, 0.0, 0.0, 0.0, 0.0, 0.0, 1.6292670559308245E9, 2021-08-18 00:10:55.930
52.0, -1826729.8125, -4500000.375, -2393878.6875, -4500000.375, -4500000.375, -2255649.0, -4500000.375, -859687.78125, -4500000.375, -4500000.375, -4500000.375, -4500000.375, -4500000.375, -4500000.375, -4500000.375, -4500000.375, 0.0856875036843121, 0.9343750402331352, 0.37531251553446054, 192.0, 0.0, 0.0, 0.0, 0.0, 0.0, 0.0, 0.0, 0.0, 0.0, 1.629267055930833E9, 2021-08-18 00:10:55.930
54.0, -1828378.3125, -4500000.375, -2397499.125, -4500000.375, -4500000.375, -2259341.25, -4500000.375, -850024.875, -4500000.375, -4500000.375, -4500000.375, -4500000.375, -4500000.375, -4500000.375, -4500000.375, -4500000.375, 0.0856875036843121, 0.9343750402331352, 0.37531251553446054, 192.0, 0.0, 0.0, 0.0, 0.0, 0.0, 0.0, 0.0, 0.0, 0.0, 1.6292670559308417E9, 2021-08-18 00:10:55.930
56.0, -1828203.5625, -4500000.375, -2394104.0625, -4500000.375, -4500000.375, -2256049.6875, -4500000.375, -861269.71875, -4500000.375, -4500000.375, -4500000.375, -4500000.375, -4500000.375, -4500000.375, -4500000.375, -4500000.375, 0.0820000022649765, 0.9320000410079956, 0.3800000250339508, 192.0, 1.0, 72.0, 14.5, 16.0, 5.5, 112.0, 0.0, 0.0, 0.0, 1.6292670559308715E9, 2021-08-18 00:10:55.930
58.0, -1827381.1875, -4500000.375, -2397133.3125, -4500000.375, -4500000.375, -2258878.3125, -4500000.375, -849353.71875, -4500000.375, -4500000.375, -4500000.375, -4500000.375, -4500000.375, -4500000.375, -4500000.375, -4500000.375, 0.0820000022649765, 0.9320000410079956, 0.3800000250339508, 192.0, 0.0, 0.0, 0.0, 0.0, 0.0, 0.0, 0.0, 0.0, 0.0, 1.62926705593088E9, 2021-08-18 00:10:55.930
60.0, -1828515.75, -4500000.375, -2393577.75, -4500000.375, -4500000.375, -2255750.8125, -4500000.375, -861691.40625, -4500000.375, -4500000.375, -4500000.375, -4500000.375, -4500000.375, -4500000.375, -4500000.375, -4500000.375, 0.0820000022649765, 0.9320000410079956, 0.3800000250339508, 192.0, 0.0, 0.0, 0.0, 0.0, 0.0, 0.0, 0.0, 0.0, 0.0, 1.629267055930889E9, 2021-08-18 00:10:55.930
62.0, -1826903.625, -4500000.375, -2397152.0625, -4500000.375, -4500000.375, -2258848.875, -4500000.375, -849208.875, -4500000.375, -4500000.375, -4500000.375, -4500000.375, -4500000.375, -4500000.375, -4500000.375, -4500000.375, 0.0820000022649765, 0.9320000410079956, 0.3800000250339508, 192.0, 0.0, 0.0, 0.0, 0.0, 0.0, 0.0, 0.0, 0.0, 0.0, 1.6292670559308975E9, 2021-08-18 00:10:55.930
64.0, -1828959.9375, -4500000.375, -2393406.5625, -4500000.375, -4500000.375, -2255817.9375, -4500000.375, -862064.15625, -4500000.375, -4500000.375, -4500000.375, -4500000.375, -4500000.375, -4500000.375, -4500000.375, -4500000.375, 0.0820000022649765, 0.9320000410079956, 0.3800000250339508, 192.0, 0.0, 0.0, 0.0, 0.0, 0.0, 0.0, 0.0, 0.0, 0.0, 1.629267055930922E9, 2021-08-18 00:10:55.930
66.0, -1825845.75, -4500000.375, -2396668.6875, -4500000.375, -4500000.375, -2258423.4375, -4500000.375, -849038.34375, -4500000.375, -4500000.375, -4500000.375, -4500000.375, -4500000.375, -4500000.375, -4500000.375, -4500000.375, 0.0820000022649765, 0.9360000491142273, 0.38600000739097595, 192.0, 1.0, 72.0, 14.5, 32.0, 6.0, 8.0, 0.0, 0.0, 0.0, 1.6292670559309323E9, 2021-08-18 00:10:55.930
68.0, -1829880.9375, -4500000.375, -2393977.5, -4500000.375, -4500000.375, -2256510.0, -4500000.375, -861538.5, -4500000.375, -4500000.375, -4500000.375, -4500000.375, -4500000.375, -4500000.375, -4500000.375, -4500000.375, 0.0820000022649765, 0.9360000491142273, 0.38600000739097595, 192.0, 0.0, 0.0, 0.0, 0.0, 0.0, 0.0, 0.0, 0.0, 0.0, 1.629267055930941E9, 2021-08-18 00:10:55.930
70.0, -1825785.1875, -4500000.375, -2396655.9375, -4500000.375, -4500000.375, -2258501.625, -4500000.375, -849797.34375, -4500000.375, -4500000.375, -4500000.375, -4500000.375, -4500000.375, -4500000.375, -4500000.375, -4500000.375, 0.0820000022649765, 0.9360000491142273, 0.38600000739097595, 192.0, 0.0, 0.0, 0.0, 0.0, 0.0, 0.0, 0.0, 0.0, 0.0, 1.6292670559309497E9, 2021-08-18 00:10:55.930
72.0, -1830446.8125, -4500000.375, -2394042.375, -4500000.375, -4500000.375, -2256857.4375, -4500000.375, -861142.03125, -4500000.375, -4500000.375, -4500000.375, -4500000.375, -4500000.375, -4500000.375, -4500000.375, -4500000.375, 0.0820000022649765, 0.9360000491142273, 0.38600000739097595, 192.0, 0.0, 0.0, 0.0, 0.0, 0.0, 0.0, 0.0, 0.0, 0.0, 1.629267055930958E9, 2021-08-18 00:10:55.930
74.0, -1824917.25, -4500000.375, -2395907.0625, -4500000.375, -4500000.375, -2257768.3125, -4500000.375, -850357.96875, -4500000.375, -4500000.375, -4500000.375, -4500000.375, -4500000.375, -4500000.375, -4500000.375, -4500000.375, 0.0820000022649765, 0.9360000491142273, 0.38600000739097595, 192.0, 0.0, 0.0, 0.0, 0.0, 0.0, 0.0, 0.0, 0.0, 0.0, 1.6292670559309664E9, 2021-08-18 00:10:55.930
76.0, -1830526.875, -4500000.375, -2394359.4375, -4500000.375, -4500000.375, -2257208.8125, -4500000.375, -859831.03125, -4500000.375, -4500000.375, -4500000.375, -4500000.375, -4500000.375, -4500000.375, -4500000.375, -4500000.375, 0.08400000631809235, 0.9340000152587891, 0.38600000739097595, 192.0, 1.0, 80.0, 14.5, 24.0, 6.0, 8.0, 0.0, 0.0, 0.0, 1.629267055930988E9, 2021-08-18 00:10:55.930
78.0, -1824816.9375, -4500000.375, -2395540.6875, -4500000.375, -4500000.375, -2257443.375, -4500000.375, -851618.625, -4500000.375, -4500000.375, -4500000.375, -4500000.375, -4500000.375, -4500000.375, -4500000.375, -4500000.375, 0.08400000631809235, 0.9340000152587891, 0.38600000739097595, 192.0, 0.0, 0.0, 0.0, 0.0, 0.0, 0.0, 0.0, 0.0, 0.0, 1.6292670559309964E9, 2021-08-18 00:10:55.930
80.0, -1830644.25, -4500000.375, -2394562.125, -4500000.375, -4500000.375, -2257391.8125, -4500000.375, -858606.84375, -4500000.375, -4500000.375, -4500000.375, -4500000.375, -4500000.375, -4500000.375, -4500000.375, -4500000.375, 0.08400000631809235, 0.9340000152587891, 0.38600000739097595, 192.0, 0.0, 0.0, 0.0, 0.0, 0.0, 0.0, 0.0, 0.0, 0.0, 1.6292670559310048E9, 2021-08-18 00:10:55.931
82.0, -1825106.625, -4500000.375, -2395271.8125, -4500000.375, -4500000.375, -2257112.8125, -4500000.375, -853329.84375, -4500000.375, -4500000.375, -4500000.375, -4500000.375, -4500000.375, -4500000.375, -4500000.375, -4500000.375, 0.08400000631809235, 0.9340000152587891, 0.38600000739097595, 192.0, 0.0, 0.0, 0.0, 0.0, 0.0, 0.0, 0.0, 0.0, 0.0, 1.6292670559310157E9, 2021-08-18 00:10:55.931
84.0, -1830894.75, -4500000.375, -2395261.6875, -4500000.375, -4500000.375, -2257983.5625, -4500000.375, -857267.90625, -4500000.375, -4500000.375, -4500000.375, -4500000.375, -4500000.375, -4500000.375, -4500000.375, -4500000.375, 0.08400000631809235, 0.9340000152587891, 0.38600000739097595, 192.0, 0.0, 0.0, 0.0, 0.0, 0.0, 0.0, 0.0, 0.0, 0.0, 1.6292670559310243E9, 2021-08-18 00:10:55.931
86.0, -1825495.5, -4500000.375, -2394815.4375, -4500000.375, -4500000.375, -2256649.3125, -4500000.375, -854827.59375, -4500000.375, -4500000.375, -4500000.375, -4500000.375, -4500000.375, -4500000.375, -4500000.375, -4500000.375, 0.08800000697374344, 0.9320000410079956, 0.38200002908706665, 192.0, 1.0, 96.0, 14.5, 16.0, 5.5, 120.0, 0.0, 0.0, 0.0, 1.6292670559310324E9, 2021-08-18 00:10:55.931
88.0, -1830538.6875, -4500000.375, -2395410.75, -4500000.375, -4500000.375, -2258063.4375, -4500000.375, -855528.1875, -4500000.375, -4500000.375, -4500000.375, -4500000.375, -4500000.375, -4500000.375, -4500000.375, -4500000.375, 0.08800000697374344, 0.9320000410079956, 0.38200002908706665, 192.0, 0.0, 0.0, 0.0, 0.0, 0.0, 0.0, 0.0, 0.0, 0.0, 1.6292670559310408E9, 2021-08-18 00:10:55.931
90.0, -1825541.0625, -4500000.375, -2394218.8125, -4500000.375, -4500000.375, -2256121.5, -4500000.375, -855976.6875, -4500000.375, -4500000.375, -4500000.375, -4500000.375, -4500000.375, -4500000.375, -4500000.375, -4500000.375, 0.08800000697374344, 0.9320000410079956, 0.38200002908706665, 192.0, 0.0, 0.0, 0.0, 0.0, 0.0, 0.0, 0.0, 0.0, 0.0, 1.629267055931049E9, 2021-08-18 00:10:55.931
92.0, -1829940.5625, -4500000.375, -2395668.375, -4500000.375, -4500000.375, -2258196.0, -4500000.375, -853687.6875, -4500000.375, -4500000.375, -4500000.375, -4500000.375, -4500000.375, -4500000.375, -4500000.375, -4500000.375, 0.08800000697374344, 0.9320000410079956, 0.38200002908706665, 192.0, 0.0, 0.0, 0.0, 0.0, 0.0, 0.0, 0.0, 0.0, 0.0, 1.6292670559310777E9, 2021-08-18 00:10:55.931
94.0, -1825971.375, -4500000.375, -2393854.5, -4500000.375, -4500000.375, -2255967.0, -4500000.375, -857739.375, -4500000.375, -4500000.375, -4500000.375, -4500000.375, -4500000.375, -4500000.375, -4500000.375, -4500000.375, 0.08800000697374344, 0.9320000410079956, 0.38200002908706665, 192.0, 0.0, 0.0, 0.0, 0.0, 0.0, 0.0, 0.0, 0.0, 0.0, 1.629267055931086E9, 2021-08-18 00:10:55.931
96.0, -1829324.0625, -4500000.375, -2396087.25, -4500000.375, -4500000.375, -2258808.5625, -4500000.375, -852289.125, -4500000.375, -4500000.375, -4500000.375, -4500000.375, -4500000.375, -4500000.375, -4500000.375, -4500000.375, 0.09000000357627869, 0.9380000233650208, 0.3760000169277191, 192.0, 1.0, 104.0, 14.5, 40.0, 5.5, 96.0, 0.0, 0.0, 0.0, 1.6292670559310968E9, 2021-08-18 00:10:55.931
98.0, -1826850.5625, -4500000.375, -2393815.875, -4500000.375, -4500000.375, -2256218.0625, -4500000.375, -859467.84375, -4500000.375, -4500000.375, -4500000.375, -4500000.375, -4500000.375, -4500000.375, -4500000.375, -4500000.375, 0.09000000357627869, 0.9380000233650208, 0.3760000169277191, 192.0, 0.0, 0.0, 0.0, 0.0, 0.0, 0.0, 0.0, 0.0, 0.0, 1.629267055931105E9, 2021-08-18 00:10:55.931
100.0, -1828396.125, -4500000.375, -2396124.1875, -4500000.375, -4500000.375, -2258756.4375, -4500000.375, -850626.1875, -4500000.375, -4500000.375, -4500000.375, -4500000.375, -4500000.375, -4500000.375, -4500000.375, -4500000.375, 0.09000000357627869, 0.9380000233650208, 0.3760000169277191, 192.0, 0.0, 0.0, 0.0, 0.0, 0.0, 0.0, 0.0, 0.0, 0.0, 1.6292670559311118E9, 2021-08-18 00:10:55.931
102.0, -1827390.1875, -4500000.375, -2393370.1875, -4500000.375, -4500000.375, -2255984.8125, -4500000.375, -860356.125, -4500000.375, -4500000.375, -4500000.375, -4500000.375, -4500000.375, -4500000.375, -4500000.375, -4500000.375, 0.09000000357627869, 0.9380000233650208, 0.3760000169277191, 192.0, 0.0, 0.0, 0.0, 0.0, 0.0, 0.0, 0.0, 0.0, 0.0, 1.6292670559311185E9, 2021-08-18 00:10:55.931
104.0, -1827842.4375, -4500000.375, -2396532.0, -4500000.375, -4500000.375, -2259131.4375, -4500000.375, -849789.375, -4500000.375, -4500000.375, -4500000.375, -4500000.375, -4500000.375, -4500000.375, -4500000.375, -4500000.375, 0.08900000527501106, 0.9380000233650208, 0.38100001215934753, 192.0, 1.0, 96.0, 14.5, 40.0, 6.0, 8.0, 0.0, 0.0, 0.0, 1.6292670559311254E9, 2021-08-18 00:10:55.931
106.0, -1827995.8125, -4500000.375, -2393350.3125, -4500000.375, -4500000.375, -2256256.6875, -4500000.375, -861285.28125, -4500000.375, -4500000.375, -4500000.375, -4500000.375, -4500000.375, -4500000.375, -4500000.375, -4500000.375, 0.08900000527501106, 0.9380000233650208, 0.38100001215934753, 192.0, 0.0, 0.0, 0.0, 0.0, 0.0, 0.0, 0.0, 0.0, 0.0, 1.6292670559311323E9, 2021-08-18 00:10:55.931
108.0, -1827053.25, -4500000.375, -2396588.8125, -4500000.375, -4500000.375, -2259155.625, -4500000.375, -849159.0, -4500000.375, -4500000.375, -4500000.375, -4500000.375, -4500000.375, -4500000.375, -4500000.375, -4500000.375, 0.08900000527501106, 0.9380000233650208, 0.38100001215934753, 192.0, 0.0, 0.0, 0.0, 0.0, 0.0, 0.0, 0.0, 0.0, 0.0, 1.6292670559311392E9, 2021-08-18 00:10:55.931
110.0, -1828617.0, -4500000.375, -2392865.4375, -4500000.375, -4500000.375, -2256033.0, -4500000.375, -861740.15625, -4500000.375, -4500000.375, -4500000.375, -4500000.375, -4500000.375, -4500000.375, -4500000.375, -4500000.375, 0.08900000527501106, 0.9380000233650208, 0.38100001215934753, 192.0, 0.0, 0.0, 0.0, 0.0, 0.0, 0.0, 0.0, 0.0, 0.0, 1.629267055931146E9, 2021-08-18 00:10:55.931
112.0, -1826447.625, -4500000.375, -2396532.0, -4500000.375, -4500000.375, -2259211.5, -4500000.375, -849107.53125, -4500000.375, -4500000.375, -4500000.375, -4500000.375, -4500000.375, -4500000.375, -4500000.375, -4500000.375, 0.08900000527501106, 0.9380000233650208, 0.38100001215934753, 192.0, 0.0, 0.0, 0.0, 0.0, 0.0, 0.0, 0.0, 0.0, 0.0, 1.629267055931155E9, 2021-08-18 00:10:55.931
114.0, -1829162.625, -4500000.375, -2392939.5, -4500000.375, -4500000.375, -2256222.9375, -4500000.375, -861597.46875, -4500000.375, -4500000.375, -4500000.375, -4500000.375, -4500000.375, -4500000.375, -4500000.375, -4500000.375, 0.0905000064522028, 0.9360000193119049, 0.38350000977516174, 192.0, 1.0, 112.0, 14.5, 24.0, 6.0, 8.0, 0.0, 0.0, 0.0, 1.6292670559311619E9, 2021-08-18 00:10:55.931
116.0, -1825662.9375, -4500000.375, -2396161.3125, -4500000.375, -4500000.375, -2258850.9375, -4500000.375, -849000.75, -4500000.375, -4500000.375, -4500000.375, -4500000.375, -4500000.375, -4500000.375, -4500000.375, -4500000.375, 0.0905000064522028, 0.9360000193119049, 0.38350000977516174, 192.0, 0.0, 0.0, 0.0, 0.0, 0.0, 0.0, 0.0, 0.0, 0.0, 1.6292670559311714E9, 2021-08-18 00:10:55.931
118.0, -1830115.3125, -4500000.375, -2393466.1875, -4500000.375, -4500000.375, -2257051.125, -4500000.375, -861600.1875, -4500000.375, -4500000.375, -4500000.375, -4500000.375, -4500000.375, -4500000.375, -4500000.375, -4500000.375, 0.0905000064522028, 0.9360000193119049, 0.38350000977516174, 192.0, 0.0, 0.0, 0.0, 0.0, 0.0, 0.0, 0.0, 0.0, 0.0, 1.629267055931178E9, 2021-08-18 00:10:55.931
120.0, -1825362.9375, -4500000.375, -2396061.5625, -4500000.375, -4500000.375, -2258803.125, -4500000.375, -850051.6875, -4500000.375, -4500000.375, -4500000.375, -4500000.375, -4500000.375, -4500000.375, -4500000.375, -4500000.375, 0.0905000064522028, 0.9360000193119049, 0.38350000977516174, 192.0, 0.0, 0.0, 0.0, 0.0, 0.0, 0.0, 0.0, 0.0, 0.0, 1.6292670559311984E9, 2021-08-18 00:10:55.931
122.0, -1830229.125, -4500000.375, -2393809.5, -4500000.375, -4500000.375, -2257462.125, -4500000.375, -860626.5, -4500000.375, -4500000.375, -4500000.375, -4500000.375, -4500000.375, -4500000.375, -4500000.375, -4500000.375, 0.0905000064522028, 0.9360000193119049, 0.38350000977516174, 192.0, 0.0, 0.0, 0.0, 0.0, 0.0, 0.0, 0.0, 0.0, 0.0, 1.6292670564099844E9, 2021-08-18 00:10:56.409
124.0, -1825011.1875, -4500000.375, -2395800.1875, -4500000.375, -4500000.375, -2258625.1875, -4500000.375, -850757.625, -4500000.375, -4500000.375, -4500000.375, -4500000.375, -4500000.375, -4500000.375, -4500000.375, -4500000.375, 0.09025000501424074, 0.9340000301599503, 0.3877500146627426, 192.0, 1.0, 104.0, 14.5, 16.0, 6.0, 32.0, 0.0, 0.0, 0.0, 1.629267056410087E9, 2021-08-18 00:10:56.410
126.0, -1830729.5625, -4500000.375, -2394246.75, -4500000.375, -4500000.375, -2258075.25, -4500000.375, -859721.0625, -4500000.375, -4500000.375, -4500000.375, -4500000.375, -4500000.375, -4500000.375, -4500000.375, -4500000.375, 0.09025000501424074, 0.9340000301599503, 0.3877500146627426, 192.0, 0.0, 0.0, 0.0, 0.0, 0.0, 0.0, 0.0, 0.0, 0.0, 1.629267056410103E9, 2021-08-18 00:10:56.410
128.0, -1824797.625, -4500000.375, -2395147.875, -4500000.375, -4500000.375, -2258040.9375, -4500000.375, -852229.03125, -4500000.375, -4500000.375, -4500000.375, -4500000.375, -4500000.375, -4500000.375, -4500000.375, -4500000.375, 0.09025000501424074, 0.9340000301599503, 0.3877500146627426, 192.0, 0.0, 0.0, 0.0, 0.0, 0.0, 0.0, 0.0, 0.0, 0.0, 1.6292670564101596E9, 2021-08-18 00:10:56.410
130.0, -1830708.1875, -4500000.375, -2394679.6875, -4500000.375, -4500000.375, -2258554.875, -4500000.375, -858363.84375, -4500000.375, -4500000.375, -4500000.375, -4500000.375, -4500000.375, -4500000.375, -4500000.375, -4500000.375, 0.09025000501424074, 0.9340000301599503, 0.3877500146627426, 192.0, 0.0, 0.0, 0.0, 0.0, 0.0, 0.0, 0.0, 0.0, 0.0, 1.629267056410194E9, 2021-08-18 00:10:56.410
132.0, -1825373.25, -4500000.375, -2395318.5, -4500000.375, -4500000.375, -2258213.625, -4500000.375, -853851.84375, -4500000.375, -4500000.375, -4500000.375, -4500000.375, -4500000.375, -4500000.375, -4500000.375, -4500000.375, 0.09025000501424074, 0.9340000301599503, 0.3877500146627426, 192.0, 0.0, 0.0, 0.0, 0.0, 0.0, 0.0, 0.0, 0.0, 0.0, 1.6292670564102066E9, 2021-08-18 00:10:56.410
134.0, -1831202.25, -4500000.375, -2395365.1875, -4500000.375, -4500000.375, -2259368.0625, -4500000.375, -857274.28125, -4500000.375, -4500000.375, -4500000.375, -4500000.375, -4500000.375, -4500000.375, -4500000.375, -4500000.375, 0.09212500462308526, 0.9330000355839729, 0.38587500900030136, 192.0, 1.0, 120.0, 14.5, 16.0, 6.0, 0.0, 0.0, 0.0, 0.0, 1.6292670564102151E9, 2021-08-18 00:10:56.410
136.0, -1825401.5625, -4500000.375, -2394467.8125, -4500000.375, -4500000.375, -2257550.0625, -4500000.375, -855608.625, -4500000.375, -4500000.375, -4500000.375, -4500000.375, -4500000.375, -4500000.375, -4500000.375, -4500000.375, 0.09212500462308526, 0.9330000355839729, 0.38587500900030136, 192.0, 0.0, 0.0, 0.0, 0.0, 0.0, 0.0, 0.0, 0.0, 0.0, 1.629267056410224E9, 2021-08-18 00:10:56.410
138.0, -1830351.9375, -4500000.375, -2395399.5, -4500000.375, -4500000.375, -2259305.25, -4500000.375, -855369.9375, -4500000.375, -4500000.375, -4500000.375, -4500000.375, -4500000.375, -4500000.375, -4500000.375, -4500000.375, 0.09212500462308526, 0.9330000355839729, 0.38587500900030136, 192.0, 0.0, 0.0, 0.0, 0.0, 0.0, 0.0, 0.0, 0.0, 0.0, 1.6292670564102323E9, 2021-08-18 00:10:56.410
140.0, -1825854.9375, -4500000.375, -2394220.5, -4500000.375, -4500000.375, -2257498.125, -4500000.375, -857168.0625, -4500000.375, -4500000.375, -4500000.375, -4500000.375, -4500000.375, -4500000.375, -4500000.375, -4500000.375, 0.09212500462308526, 0.9330000355839729, 0.38587500900030136, 192.0, 0.0, 0.0, 0.0, 0.0, 0.0, 0.0, 0.0, 0.0, 0.0, 1.62926705641024E9, 2021-08-18 00:10:56.410
142.0, -1829782.6875, -4500000.375, -2395919.8125, -4500000.375, -4500000.375, -2259908.8125, -4500000.375, -853680.1875, -4500000.375, -4500000.375, -4500000.375, -4500000.375, -4500000.375, -4500000.375, -4500000.375, -4500000.375, 0.09212500462308526, 0.9330000355839729, 0.38587500900030136, 192.0, 0.0, 0.0, 0.0, 0.0, 0.0, 0.0, 0.0, 0.0, 0.0, 1.629267056410248E9, 2021-08-18 00:10:56.410
144.0, -1826471.25, -4500000.375, -2394006.375, -4500000.375, -4500000.375, -2257439.0625, -4500000.375, -858731.8125, -4500000.375, -4500000.375, -4500000.375, -4500000.375, -4500000.375, -4500000.375, -4500000.375, -4500000.375, 0.09600000083446503, 0.9340000152587891, 0.3840000033378601, 192.0, 1.5, 0.0, 14.5, 24.0, 6.0, 0.0, 0.0, 0.0, 0.0, 1.629267056410256E9, 2021-08-18 00:10:56.410
146.0, -1829231.8125, -4500000.375, -2396201.4375, -4500000.375, -4500000.375, -2259909.375, -4500000.375, -852090.65625, -4500000.375, -4500000.375, -4500000.375, -4500000.375, -4500000.375, -4500000.375, -4500000.375, -4500000.375, 0.09600000083446503, 0.9340000152587891, 0.3840000033378601, 192.0, 0.0, 0.0, 0.0, 0.0, 0.0, 0.0, 0.0, 0.0, 0.0, 1.629267056410287E9, 2021-08-18 00:10:56.410
148.0, -1826628.0, -4500000.375, -2393267.625, -4500000.375, -4500000.375, -2256713.8125, -4500000.375, -859755.84375, -4500000.375, -4500000.375, -4500000.375, -4500000.375, -4500000.375, -4500000.375, -4500000.375, -4500000.375, 0.09600000083446503, 0.9340000152587891, 0.3840000033378601, 192.0, 0.0, 0.0, 0.0, 0.0, 0.0, 0.0, 0.0, 0.0, 0.0, 1.6292670564102943E9, 2021-08-18 00:10:56.410
150.0, -1828421.8125, -4500000.375, -2396310.375, -4500000.375, -4500000.375, -2259882.0, -4500000.375, -850809.09375, -4500000.375, -4500000.375, -4500000.375, -4500000.375, -4500000.375, -4500000.375, -4500000.375, -4500000.375, 0.09600000083446503, 0.9340000152587891, 0.3840000033378601, 192.0, 0.0, 0.0, 0.0, 0.0, 0.0, 0.0, 0.0, 0.0, 0.0, 1.6292670564103117E9, 2021-08-18 00:10:56.410
152.0, -1827060.375, -4500000.375, -2392552.6875, -4500000.375, -4500000.375, -2256069.0, -4500000.375, -860595.375, -4500000.375, -4500000.375, -4500000.375, -4500000.375, -4500000.375, -4500000.375, -4500000.375, -4500000.375, 0.09600000083446503, 0.9340000152587891, 0.3840000033378601, 192.0, 0.0, 0.0, 0.0, 0.0, 0.0, 0.0, 0.0, 0.0, 0.0, 1.629267056410332E9, 2021-08-18 00:10:56.410
154.0, -1827497.0625, -4500000.375, -2396222.4375, -4500000.375, -4500000.375, -2259564.375, -4500000.375, -849671.8125, -4500000.375, -4500000.375, -4500000.375, -4500000.375, -4500000.375, -4500000.375, -4500000.375, -4500000.375, 0.09800000488758087, 0.9360000491142273, 0.37800002098083496, 192.0, 1.5, 8.0, 14.5, 32.0, 5.5, 104.0, 0.0, 0.0, 0.0, 1.6292670564103396E9, 2021-08-18 00:10:56.410
156.0, -1828535.0625, -4500000.375, -2393400.75, -4500000.375, -4500000.375, -2257075.3125, -4500000.375, -861885.0, -4500000.375, -4500000.375, -4500000.375, -4500000.375, -4500000.375, -4500000.375, -4500000.375, -4500000.375, 0.09800000488758087, 0.9360000491142273, 0.37800002098083496, 192.0, 0.0, 0.0, 0.0, 0.0, 0.0, 0.0, 0.0, 0.0, 0.0, 1.6292670564103465E9, 2021-08-18 00:10:56.410
158.0, -1826699.8125, -4500000.375, -2396297.0625, -4500000.375, -4500000.375, -2259594.9375, -4500000.375, -849097.3125, -4500000.375, -4500000.375, -4500000.375, -4500000.375, -4500000.375, -4500000.375, -4500000.375, -4500000.375, 0.09800000488758087, 0.9360000491142273, 0.37800002098083496, 192.0, 0.0, 0.0, 0.0, 0.0, 0.0, 0.0, 0.0, 0.0, 0.0, 1.629267056410354E9, 2021-08-18 00:10:56.410
160.0, -1828804.875, -4500000.375, -2392760.8125, -4500000.375, -4500000.375, -2256680.4375, -4500000.375, -861880.21875, -4500000.375, -4500000.375, -4500000.375, -4500000.375, -4500000.375, -4500000.375, -4500000.375, -4500000.375, 0.09800000488758087, 0.9360000491142273, 0.37800002098083496, 192.0, 0.0, 0.0, 0.0, 0.0, 0.0, 0.0, 0.0, 0.0, 0.0, 1.6292670564103613E9, 2021-08-18 00:10:56.410
162.0, -1825922.0625, -4500000.375, -2395662.9375, -4500000.375, -4500000.375, -2259032.8125, -4500000.375, -849237.84375, -4500000.375, -4500000.375, -4500000.375, -4500000.375, -4500000.375, -4500000.375, -4500000.375, -4500000.375, 0.09800000488758087, 0.9360000491142273, 0.37800002098083496, 192.0, 0.0, 0.0, 0.0, 0.0, 0.0, 0.0, 0.0, 0.0, 0.0, 1.629267056410368E9, 2021-08-18 00:10:56.410
164.0, -1829503.3125, -4500000.375, -2392796.25, -4500000.375, -4500000.375, -2256831.1875, -4500000.375, -861724.125, -4500000.375, -4500000.375, -4500000.375, -4500000.375, -4500000.375, -4500000.375, -4500000.375, -4500000.375, 0.09400000423192978, 0.9340000152587891, 0.38200002908706665, 192.0, 1.0, 120.0, 14.5, 24.0, 5.5, 120.0, 0.0, 0.0, 0.0, 1.6292670564103749E9, 2021-08-18 00:10:56.410
166.0, -1825772.8125, -4500000.375, -2396052.375, -4500000.375, -4500000.375, -2259203.4375, -4500000.375, -849491.625, -4500000.375, -4500000.375, -4500000.375, -4500000.375, -4500000.375, -4500000.375, -4500000.375, -4500000.375, 0.09400000423192978, 0.9340000152587891, 0.38200002908706665, 192.0, 0.0, 0.0, 0.0, 0.0, 0.0, 0.0, 0.0, 0.0, 0.0, 1.6292670564103825E9, 2021-08-18 00:10:56.410
168.0, -1830218.8125, -4500000.375, -2393442.5625, -4500000.375, -4500000.375, -2257456.125, -4500000.375, -861592.6875, -4500000.375, -4500000.375, -4500000.375, -4500000.375, -4500000.375, -4500000.375, -4500000.375, -4500000.375, 0.09400000423192978, 0.9340000152587891, 0.38200002908706665, 192.0, 0.0, 0.0, 0.0, 0.0, 0.0, 0.0, 0.0, 0.0, 0.0, 1.6292670564103904E9, 2021-08-18 00:10:56.410
170.0, -1825487.4375, -4500000.375, -2396018.625, -4500000.375, -4500000.375, -2259057.5625, -4500000.375, -850628.34375, -4500000.375, -4500000.375, -4500000.375, -4500000.375, -4500000.375, -4500000.375, -4500000.375, -4500000.375, 0.09400000423192978, 0.9340000152587891, 0.38200002908706665, 192.0, 0.0, 0.0, 0.0, 0.0, 0.0, 0.0, 0.0, 0.0, 0.0, 1.6292670564103985E9, 2021-08-18 00:10:56.410
172.0, -1830117.0, -4500000.375, -2393096.0625, -4500000.375, -4500000.375, -2257044.75, -4500000.375, -860483.8125, -4500000.375, -4500000.375, -4500000.375, -4500000.375, -4500000.375, -4500000.375, -4500000.375, -4500000.375, 0.09400000423192978, 0.9340000152587891, 0.38200002908706665, 192.0, 0.0, 0.0, 0.0, 0.0, 0.0, 0.0, 0.0, 0.0, 0.0, 1.6292670564104054E9, 2021-08-18 00:10:56.410
174.0, -1824694.6875, -4500000.375, -2394893.0625, -4500000.375, -4500000.375, -2257998.5625, -4500000.375, -851238.84375, -4500000.375, -4500000.375, -4500000.375, -4500000.375, -4500000.375, -4500000.375, -4500000.375, -4500000.375, 0.09600000083446503, 0.9380000233650208, 0.39000001549720764, 192.0, 1.5, 0.0, 14.5, 40.0, 6.0, 24.0, 0.0, 0.0, 0.0, 1.6292670564104133E9, 2021-08-18 00:10:56.410
176.0, -1830949.5, -4500000.375, -2394047.625, -4500000.375, -4500000.375, -2258320.3125, -4500000.375, -859578.28125, -4500000.375, -4500000.375, -4500000.375, -4500000.375, -4500000.375, -4500000.375, -4500000.375, -4500000.375, 0.09600000083446503, 0.9380000233650208, 0.39000001549720764, 192.0, 0.0, 0.0, 0.0, 0.0, 0.0, 0.0, 0.0, 0.0, 0.0, 1.6292670564104204E9, 2021-08-18 00:10:56.410
178.0, -1825199.4375, -4500000.375, -2395104.9375, -4500000.375, -4500000.375, -2258419.6875, -4500000.375, -853104.5625, -4500000.375, -4500000.375, -4500000.375, -4500000.375, -4500000.375, -4500000.375, -4500000.375, -4500000.375, 0.09600000083446503, 0.9380000233650208, 0.39000001549720764, 192.0, 0.0, 0.0, 0.0, 0.0, 0.0, 0.0, 0.0, 0.0, 0.0, 1.6292670564104276E9, 2021-08-18 00:10:56.410
180.0, -1830639.0, -4500000.375, -2394377.0625, -4500000.375, -4500000.375, -2258587.5, -4500000.375, -858149.25, -4500000.375, -4500000.375, -4500000.375, -4500000.375, -4500000.375, -4500000.375, -4500000.375, -4500000.375, 0.09600000083446503, 0.9380000233650208, 0.39000001549720764, 192.0, 0.0, 0.0, 0.0, 0.0, 0.0, 0.0, 0.0, 0.0, 0.0, 1.6292670564104354E9, 2021-08-18 00:10:56.410
182.0, -1825353.375, -4500000.375, -2394715.5, -4500000.375, -4500000.375, -2257992.5625, -4500000.375, -854596.96875, -4500000.375, -4500000.375, -4500000.375, -4500000.375, -4500000.375, -4500000.375, -4500000.375, -4500000.375, 0.09600000083446503, 0.9380000233650208, 0.39000001549720764, 192.0, 0.0, 0.0, 0.0, 0.0, 0.0, 0.0, 0.0, 0.0, 0.0, 1.6292670564104426E9, 2021-08-18 00:10:56.410
184.0, -1830226.3125, -4500000.375, -2394513.375, -4500000.375, -4500000.375, -2258715.1875, -4500000.375, -856438.03125, -4500000.375, -4500000.375, -4500000.375, -4500000.375, -4500000.375, -4500000.375, -4500000.375, -4500000.375, 0.09400000423192978, 0.9360000491142273, 0.3920000195503235, 192.0, 1.0, 120.0, 14.5, 32.0, 6.0, 32.0, 0.0, 0.0, 0.0, 1.6292670564104543E9, 2021-08-18 00:10:56.410
186.0, -1825502.4375, -4500000.375, -2394321.75, -4500000.375, -4500000.375, -2257635.9375, -4500000.375, -856066.78125, -4500000.375, -4500000.375, -4500000.375, -4500000.375, -4500000.375, -4500000.375, -4500000.375, -4500000.375, 0.09400000423192978, 0.9360000491142273, 0.3920000195503235, 192.0, 0.0, 0.0, 0.0, 0.0, 0.0, 0.0, 0.0, 0.0, 0.0, 1.629267056410462E9, 2021-08-18 00:10:56.410
188.0, -1829769.9375, -4500000.375, -2395024.5, -4500000.375, -4500000.375, -2259047.8125, -4500000.375, -854621.0625, -4500000.375, -4500000.375, -4500000.375, -4500000.375, -4500000.375, -4500000.375, -4500000.375, -4500000.375, 0.09400000423192978, 0.9360000491142273, 0.3920000195503235, 192.0, 0.0, 0.0, 0.0, 0.0, 0.0, 0.0, 0.0, 0.0, 0.0, 1.6292670564104693E9, 2021-08-18 00:10:56.410
190.0, -1825581.375, -4500000.375, -2393342.8125, -4500000.375, -4500000.375, -2256704.0625, -4500000.375, -857404.6875, -4500000.375, -4500000.375, -4500000.375, -4500000.375, -4500000.375, -4500000.375, -4500000.375, -4500000.375, 0.09400000423192978, 0.9360000491142273, 0.3920000195503235, 192.0, 0.0, 0.0, 0.0, 0.0, 0.0, 0.0, 0.0, 0.0, 0.0, 1.6292670564104764E9, 2021-08-18 00:10:56.410
192.0, -1829241.9375, -4500000.375, -2395010.0625, -4500000.375, -4500000.375, -2258771.0625, -4500000.375, -852929.15625, -4500000.375, -4500000.375, -4500000.375, -4500000.375, -4500000.375, -4500000.375, -4500000.375, -4500000.375, 0.09800000488758087, 0.937000036239624, 0.39000001549720764, 192.0, 1.5, 24.0, 14.5, 40.0, 6.0, 16.0, 0.0, 0.0, 0.0, 1.6292670564104843E9, 2021-08-18 00:10:56.410
194.0, -1826558.8125, -4500000.375, -2393028.0, -4500000.375, -4500000.375, -2256382.3125, -4500000.375, -859274.71875, -4500000.375, -4500000.375, -4500000.375, -4500000.375, -4500000.375, -4500000.375, -4500000.375, -4500000.375, 0.09800000488758087, 0.937000036239624, 0.39000001549720764, 192.0, 0.0, 0.0, 0.0, 0.0, 0.0, 0.0, 0.0, 0.0, 0.0, 1.6292670564104922E9, 2021-08-18 00:10:56.410
196.0, -1829532.1875, -4500000.375, -2395949.4375, -4500000.375, -4500000.375, -2259687.75, -4500000.375, -852365.34375, -4500000.375, -4500000.375, -4500000.375, -4500000.375, -4500000.375, -4500000.375, -4500000.375, -4500000.375, 0.09800000488758087, 0.937000036239624, 0.39000001549720764, 192.0, 0.0, 0.0, 0.0, 0.0, 0.0, 0.0, 0.0, 0.0, 0.0, 1.6292670564105E9, 2021-08-18 00:10:56.410
198.0, -1827593.0625, -4500000.375, -2393125.5, -4500000.375, -4500000.375, -2257007.8125, -4500000.375, -860823.9375, -4500000.375, -4500000.375, -4500000.375, -4500000.375, -4500000.375, -4500000.375, -4500000.375, -4500000.375, 0.09800000488758087, 0.937000036239624, 0.39000001549720764, 192.0, 0.0, 0.0, 0.0, 0.0, 0.0, 0.0, 0.0, 0.0, 0.0, 1.629267056410526E9, 2021-08-18 00:10:56.410
200.0, -1827822.5625, -4500000.375, -2395324.875, -4500000.375, -4500000.375, -2259362.625, -4500000.375, -850602.5625, -4500000.375, -4500000.375, -4500000.375, -4500000.375, -4500000.375, -4500000.375, -4500000.375, -4500000.375, 0.09800000488758087, 0.937000036239624, 0.39000001549720764, 192.0, 0.0, 0.0, 0.0, 0.0, 0.0, 0.0, 0.0, 0.0, 0.0, 1.6292670564105337E9, 2021-08-18 00:10:56.410
202.0, -1828080.5625, -4500000.375, -2392956.5625, -4500000.375, -4500000.375, -2257103.25, -4500000.375, -861719.8125, -4500000.375, -4500000.375, -4500000.375, -4500000.375, -4500000.375, -4500000.375, -4500000.375, -4500000.375, 0.10000000521540642, 0.9375000298023224, 0.39000001549720764, 192.0, 1.5, 24.0, 14.5, 40.0, 6.0, 24.0, 0.0, 0.0, 0.0, 1.629267056410545E9, 2021-08-18 00:10:56.410
204.0, -1827877.3125, -4500000.375, -2396175.75, -4500000.375, -4500000.375, -2259890.625, -4500000.375, -850118.71875, -4500000.375, -4500000.375, -4500000.375, -4500000.375, -4500000.375, -4500000.375, -4500000.375, -4500000.375, 0.10000000521540642, 0.9375000298023224, 0.39000001549720764, 192.0, 0.0, 0.0, 0.0, 0.0, 0.0, 0.0, 0.0, 0.0, 0.0, 1.6292670564105537E9, 2021-08-18 00:10:56.410
206.0, -1828893.375, -4500000.375, -2392902.375, -4500000.375, -4500000.375, -2256828.5625, -4500000.375, -862072.21875, -4500000.375, -4500000.375, -4500000.375, -4500000.375, -4500000.375, -4500000.375, -4500000.375, -4500000.375, 0.10000000521540642, 0.9375000298023224, 0.39000001549720764, 192.0, 0.0, 0.0, 0.0, 0.0, 0.0, 0.0, 0.0, 0.0, 0.0, 1.629267056410561E9, 2021-08-18 00:10:56.410
208.0, -1827315.1875, -4500000.375, -2396570.0625, -4500000.375, -4500000.375, -2260161.0, -4500000.375, -849655.21875, -4500000.375, -4500000.375, -4500000.375, -4500000.375, -4500000.375, -4500000.375, -4500000.375, -4500000.375, 0.10000000521540642, 0.9375000298023224, 0.39000001549720764, 192.0, 0.0, 0.0, 0.0, 0.0, 0.0, 0.0, 0.0, 0.0, 0.0, 1.6292670564105687E9, 2021-08-18 00:10:56.410
210.0, -1829445.375, -4500000.375, -2392977.5625, -4500000.375, -4500000.375, -2257049.0625, -4500000.375, -862334.53125, -4500000.375, -4500000.375, -4500000.375, -4500000.375, -4500000.375, -4500000.375, -4500000.375, -4500000.375, 0.10000000521540642, 0.9375000298023224, 0.39000001549720764, 192.0, 0.0, 0.0, 0.0, 0.0, 0.0, 0.0, 0.0, 0.0, 0.0, 1.6292670564105897E9, 2021-08-18 00:10:56.410
212.0, -1826050.125, -4500000.375, -2395696.6875, -4500000.375, -4500000.375, -2259076.875, -4500000.375, -849450.84375, -4500000.375, -4500000.375, -4500000.375, -4500000.375, -4500000.375, -4500000.375, -4500000.375, -4500000.375, 0.10100000537931919, 0.934750035405159, 0.3870000094175339, 192.0, 1.5, 24.0, 14.5, 16.0, 6.0, 0.0, 0.0, 0.0, 0.0, 1.6292670564105968E9, 2021-08-18 00:10:56.410
214.0, -1830215.0625, -4500000.375, -2393379.375, -4500000.375, -4500000.375, -2257501.875, -4500000.375, -862199.34375, -4500000.375, -4500000.375, -4500000.375, -4500000.375, -4500000.375, -4500000.375, -4500000.375, -4500000.375, 0.10100000537931919, 0.934750035405159, 0.3870000094175339, 192.0, 0.0, 0.0, 0.0, 0.0, 0.0, 0.0, 0.0, 0.0, 0.0, 1.6292670564106045E9, 2021-08-18 00:10:56.410
216.0, -1825613.625, -4500000.375, -2395652.8125, -4500000.375, -4500000.375, -2259081.5625, -4500000.375, -849858.0, -4500000.375, -4500000.375, -4500000.375, -4500000.375, -4500000.375, -4500000.375, -4500000.375, -4500000.375, 0.10100000537931919, 0.934750035405159, 0.3870000094175339, 192.0, 0.0, 0.0, 0.0, 0.0, 0.0, 0.0, 0.0, 0.0, 0.0, 1.6292670564106133E9, 2021-08-18 00:10:56.410
218.0, -1830432.9375, -4500000.375, -2393201.25, -4500000.375, -4500000.375, -2257666.5, -4500000.375, -861506.8125, -4500000.375, -4500000.375, -4500000.375, -4500000.375, -4500000.375, -4500000.375, -4500000.375, -4500000.375, 0.10100000537931919, 0.934750035405159, 0.3870000094175339, 192.0, 0.0, 0.0, 0.0, 0.0, 0.0, 0.0, 0.0, 0.0, 0.0, 1.6292670564106421E9, 2021-08-18 00:10:56.410
220.0, -1825551.75, -4500000.375, -2395696.6875, -4500000.375, -4500000.375, -2259374.4375, -4500000.375, -851170.125, -4500000.375, -4500000.375, -4500000.375, -4500000.375, -4500000.375, -4500000.375, -4500000.375, -4500000.375, 0.10100000537931919, 0.934750035405159, 0.3870000094175339, 192.0, 0.0, 0.0, 0.0, 0.0, 0.0, 0.0, 0.0, 0.0, 0.0, 1.6292670564106514E9, 2021-08-18 00:10:56.410
222.0, -1830987.0, -4500000.375, -2393584.125, -4500000.375, -4500000.375, -2258137.5, -4500000.375, -860943.5625, -4500000.375, -4500000.375, -4500000.375, -4500000.375, -4500000.375, -4500000.375, -4500000.375, -4500000.375, 0.09850000310689211, 0.9363750293850899, 0.385500006377697, 192.0, 1.5, 0.0, 14.5, 40.0, 6.0, 0.0, 0.0, 0.0, 0.0, 1.6292670564106588E9, 2021-08-18 00:10:56.410
224.0, -1825499.8125, -4500000.375, -2394962.8125, -4500000.375, -4500000.375, -2258556.375, -4500000.375, -852300.9375, -4500000.375, -4500000.375, -4500000.375, -4500000.375, -4500000.375, -4500000.375, -4500000.375, -4500000.375, 0.09850000310689211, 0.9363750293850899, 0.385500006377697, 192.0, 0.0, 0.0, 0.0, 0.0, 0.0, 0.0, 0.0, 0.0, 0.0, 1.6292670564106665E9, 2021-08-18 00:10:56.410
226.0, -1830833.625, -4500000.375, -2393516.625, -4500000.375, -4500000.375, -2258044.6875, -4500000.375, -859341.1875, -4500000.375, -4500000.375, -4500000.375, -4500000.375, -4500000.375, -4500000.375, -4500000.375, -4500000.375, 0.09850000310689211, 0.9363750293850899, 0.385500006377697, 192.0, 0.0, 0.0, 0.0, 0.0, 0.0, 0.0, 0.0, 0.0, 0.0, 1.6292670564106743E9, 2021-08-18 00:10:56.410
228.0, -1824998.8125, -4500000.375, -2394159.1875, -4500000.375, -4500000.375, -2257627.3125, -4500000.375, -853600.21875, -4500000.375, -4500000.375, -4500000.375, -4500000.375, -4500000.375, -4500000.375, -4500000.375, -4500000.375, 0.09850000310689211, 0.9363750293850899, 0.385500006377697, 192.0, 0.0, 0.0, 0.0, 0.0, 0.0, 0.0, 0.0, 0.0, 0.0, 1.629267056410695E9, 2021-08-18 00:10:56.410
230.0, -1831140.5625, -4500000.375, -2394535.3125, -4500000.375, -4500000.375, -2258860.6875, -4500000.375, -858042.0, -4500000.375, -4500000.375, -4500000.375, -4500000.375, -4500000.375, -4500000.375, -4500000.375, -4500000.375, 0.09850000310689211, 0.9363750293850899, 0.385500006377697, 192.0, 0.0, 0.0, 0.0, 0.0, 0.0, 0.0, 0.0, 0.0, 0.0, 1.6292670564107218E9, 2021-08-18 00:10:56.410
232.0, -1824782.0625, -4500000.375, -2393673.75, -4500000.375, -4500000.375, -2257150.5, -4500000.375, -854720.8125, -4500000.375, -4500000.375, -4500000.375, -4500000.375, -4500000.375, -4500000.375, -4500000.375, -4500000.375, 0.09825000399723649, 0.9371875263750553, 0.38575000688433647, 192.0, 1.5, 8.0, 14.5, 40.0, 6.0, 8.0, 0.0, 0.0, 0.0, 1.6292670564107304E9, 2021-08-18 00:10:56.410
234.0, -1830367.5, -4500000.375, -2394480.5625, -4500000.375, -4500000.375, -2258775.75, -4500000.375, -856171.40625, -4500000.375, -4500000.375, -4500000.375, -4500000.375, -4500000.375, -4500000.375, -4500000.375, -4500000.375, 0.09825000399723649, 0.9371875263750553, 0.38575000688433647, 192.0, 0.0, 0.0, 0.0, 0.0, 0.0, 0.0, 0.0, 0.0, 0.0, 1.6292670564107397E9, 2021-08-18 00:10:56.410
236.0, -1825904.25, -4500000.375, -2393968.3125, -4500000.375, -4500000.375, -2257547.4375, -4500000.375, -856912.78125, -4500000.375, -4500000.375, -4500000.375, -4500000.375, -4500000.375, -4500000.375, -4500000.375, -4500000.375, 0.09825000399723649, 0.9371875263750553, 0.38575000688433647, 192.0, 0.0, 0.0, 0.0, 0.0, 0.0, 0.0, 0.0, 0.0, 0.0, 1.6292670564107487E9, 2021-08-18 00:10:56.410
238.0, -1830030.5625, -4500000.375, -2394775.6875, -4500000.375, -4500000.375, -2259229.6875, -4500000.375, -854778.75, -4500000.375, -4500000.375, -4500000.375, -4500000.375, -4500000.375, -4500000.375, -4500000.375, -4500000.375, 0.09825000399723649, 0.9371875263750553, 0.38575000688433647, 192.0, 0.0, 0.0, 0.0, 0.0, 0.0, 0.0, 0.0, 0.0, 0.0, 1.629267056410758E9, 2021-08-18 00:10:56.410
240.0, -1826320.5, -4500000.375, -2393261.8125, -4500000.375, -4500000.375, -2257411.125, -4500000.375, -858478.125, -4500000.375, -4500000.375, -4500000.375, -4500000.375, -4500000.375, -4500000.375, -4500000.375, -4500000.375, 0.09825000399723649, 0.9371875263750553, 0.38575000688433647, 192.0, 0.0, 0.0, 0.0, 0.0, 0.0, 0.0, 0.0, 0.0, 0.0, 1.6292670564107673E9, 2021-08-18 00:10:56.410
242.0, -1829643.75, -4500000.375, -2395126.5, -4500000.375, -4500000.375, -2260031.625, -4500000.375, -853358.8125, -4500000.375, -4500000.375, -4500000.375, -4500000.375, -4500000.375, -4500000.375, -4500000.375, -4500000.375, 0.09800000488758087, 0.9360000491142273, 0.3920000195503235, 192.0, 1.5, 8.0, 14.5, 32.0, 6.0, 32.0, 0.0, 0.0, 0.0, 1.6292670568907175E9, 2021-08-18 00:10:56.890
244.0, -1826470.3125, -4500000.375, -2392354.6875, -4500000.375, -4500000.375, -2257028.625, -4500000.375, -860057.90625, -4500000.375, -4500000.375, -4500000.375, -4500000.375, -4500000.375, -4500000.375, -4500000.375, -4500000.375, 0.09800000488758087, 0.9360000491142273, 0.3920000195503235, 192.0, 0.0, 0.0, 0.0, 0.0, 0.0, 0.0, 0.0, 0.0, 0.0, 1.6292670568907251E9, 2021-08-18 00:10:56.890
246.0, -1829207.0625, -4500000.375, -2395655.4375, -4500000.375, -4500000.375, -2260629.1875, -4500000.375, -852308.4375, -4500000.375, -4500000.375, -4500000.375, -4500000.375, -4500000.375, -4500000.375, -4500000.375, -4500000.375, 0.09800000488758087, 0.9360000491142273, 0.3920000195503235, 192.0, 0.0, 0.0, 0.0, 0.0, 0.0, 0.0, 0.0, 0.0, 0.0, 1.6292670568907323E9, 2021-08-18 00:10:56.890
248.0, -1827377.8125, -4500000.375, -2392203.375, -4500000.375, -4500000.375, -2257198.125, -4500000.375, -861269.71875, -4500000.375, -4500000.375, -4500000.375, -4500000.375, -4500000.375, -4500000.375, -4500000.375, -4500000.375, 0.09800000488758087, 0.9360000491142273, 0.3920000195503235, 192.0, 0.0, 0.0, 0.0, 0.0, 0.0, 0.0, 0.0, 0.0, 0.0, 1.629267056890739E9, 2021-08-18 00:10:56.890
250.0, -1828421.8125, -4500000.375, -2395520.8125, -4500000.375, -4500000.375, -2260495.125, -4500000.375, -850901.34375, -4500000.375, -4500000.375, -4500000.375, -4500000.375, -4500000.375, -4500000.375, -4500000.375, -4500000.375, 0.09800000488758087, 0.9360000491142273, 0.3920000195503235, 192.0, 0.0, 0.0, 0.0, 0.0, 0.0, 0.0, 0.0, 0.0, 0.0, 1.629267056890746E9, 2021-08-18 00:10:56.890
252.0, -1828031.25, -4500000.375, -2391776.4375, -4500000.375, -4500000.375, -2256799.5, -4500000.375, -861916.125, -4500000.375, -4500000.375, -4500000.375, -4500000.375, -4500000.375, -4500000.375, -4500000.375, -4500000.375, 0.09600000083446503, 0.9320000410079956, 0.3880000114440918, 192.0, 1.5, 0.0, 14.5, 16.0, 6.0, 16.0, 0.0, 0.0, 0.0, 1.629267056890774E9, 2021-08-18 00:10:56.890
254.0, -1827314.625, -4500000.375, -2395039.5, -4500000.375, -4500000.375, -2259777.375, -4500000.375, -850042.5, -4500000.375, -4500000.375, -4500000.375, -4500000.375, -4500000.375, -4500000.375, -4500000.375, -4500000.375, 0.09600000083446503, 0.9320000410079956, 0.3880000114440918, 192.0, 0.0, 0.0, 0.0, 0.0, 0.0, 0.0, 0.0, 0.0, 0.0, 1.6292670568907807E9, 2021-08-18 00:10:56.890
0.0, -1829130.0, -4500000.375, -2392193.25, -4500000.375, -4500000.375, -2257272.1875, -4500000.375, -862821.09375, -4500000.375, -4500000.375, -4500000.375, -4500000.375, -4500000.375, -4500000.375, -4500000.375, -4500000.375, 0.09600000083446503, 0.9320000410079956, 0.3880000114440918, 192.0, 0.0, 0.0, 0.0, 0.0, 0.0, 0.0, 0.0, 0.0, 0.0, 1.6292670568907871E9, 2021-08-18 00:10:56.890
2.0, -1826641.875, -4500000.375, -2395195.6875, -4500000.375, -4500000.375, -2259810.5625, -4500000.375, -849800.625, -4500000.375, -4500000.375, -4500000.375, -4500000.375, -4500000.375, -4500000.375, -4500000.375, -4500000.375, 0.09600000083446503, 0.9320000410079956, 0.3880000114440918, 192.0, 0.0, 0.0, 0.0, 0.0, 0.0, 0.0, 0.0, 0.0, 0.0, 1.629267056890794E9, 2021-08-18 00:10:56.890
4.0, -1828825.6875, -4500000.375, -2391302.25, -4500000.375, -4500000.375, -2256371.0625, -4500000.375, -862028.25, -4500000.375, -4500000.375, -4500000.375, -4500000.375, -4500000.375, -4500000.375, -4500000.375, -4500000.375, 0.09600000083446503, 0.9320000410079956, 0.3880000114440918, 192.0, 0.0, 0.0, 0.0, 0.0, 0.0, 0.0, 0.0, 0.0, 0.0, 1.6292670568908005E9, 2021-08-18 00:10:56.890
6.0, -1825829.625, -4500000.375, -2394891.0, -4500000.375, -4500000.375, -2259288.75, -4500000.375, -849559.78125, -4500000.375, -4500000.375, -4500000.375, -4500000.375, -4500000.375, -4500000.375, -4500000.375, -4500000.375, 0.09400000423192978, 0.9260000586509705, 0.38600000739097595, 192.0, 1.0, 120.0, 14.0, 120.0, 6.0, 8.0, 0.0, 0.0, 0.0, 1.6292670568908076E9, 2021-08-18 00:10:56.890
8.0, -1830342.75, -4500000.375, -2392229.25, -4500000.375, -4500000.375, -2257619.25, -4500000.375, -862428.9375, -4500000.375, -4500000.375, -4500000.375, -4500000.375, -4500000.375, -4500000.375, -4500000.375, -4500000.375, 0.09400000423192978, 0.9260000586509705, 0.38600000739097595, 192.0, 0.0, 0.0, 0.0, 0.0, 0.0, 0.0, 0.0, 0.0, 0.0, 1.6292670568908143E9, 2021-08-18 00:10:56.890
10.0, -1825973.4375, -4500000.375, -2394823.3125, -4500000.375, -4500000.375, -2259401.25, -4500000.375, -850339.21875, -4500000.375, -4500000.375, -4500000.375, -4500000.375, -4500000.375, -4500000.375, -4500000.375, -4500000.375, 0.09400000423192978, 0.9260000586509705, 0.38600000739097595, 192.0, 0.0, 0.0, 0.0, 0.0, 0.0, 0.0, 0.0, 0.0, 0.0, 1.6292670568908207E9, 2021-08-18 00:10:56.890
12.0, -1830701.0625, -4500000.375, -2392177.6875, -4500000.375, -4500000.375, -2257565.625, -4500000.375, -861682.78125, -4500000.375, -4500000.375, -4500000.375, -4500000.375, -4500000.375, -4500000.375, -4500000.375, -4500000.375, 0.09400000423192978, 0.9260000586509705, 0.38600000739097595, 192.0, 0.0, 0.0, 0.0, 0.0, 0.0, 0.0, 0.0, 0.0, 0.0, 1.6292670568908274E9, 2021-08-18 00:10:56.890
14.0, -1825590.9375, -4500000.375, -2394441.375, -4500000.375, -4500000.375, -2258739.9375, -4500000.375, -851414.71875, -4500000.375, -4500000.375, -4500000.375, -4500000.375, -4500000.375, -4500000.375, -4500000.375, -4500000.375, 0.09400000423192978, 0.9260000586509705, 0.38600000739097595, 192.0, 0.0, 0.0, 0.0, 0.0, 0.0, 0.0, 0.0, 0.0, 0.0, 1.629267056890834E9, 2021-08-18 00:10:56.890
16.0, -1830862.6875, -4500000.375, -2392434.0, -4500000.375, -4500000.375, -2257777.5, -4500000.375, -860599.21875, -4500000.375, -4500000.375, -4500000.375, -4500000.375, -4500000.375, -4500000.375, -4500000.375, -4500000.375, 0.10000000149011612, 0.9280000329017639, 0.3800000250339508, 192.0, 1.5, 16.0, 14.5, 0.0, 5.5, 112.0, 0.0, 0.0, 0.0, 1.6292670568908405E9, 2021-08-18 00:10:56.890
18.0, -1825582.5, -4500000.375, -2394162.5625, -4500000.375, -4500000.375, -2258598.75, -4500000.375, -852985.96875, -4500000.375, -4500000.375, -4500000.375, -4500000.375, -4500000.375, -4500000.375, -4500000.375, -4500000.375, 0.10000000149011612, 0.9280000329017639, 0.3800000250339508, 192.0, 0.0, 0.0, 0.0, 0.0, 0.0, 0.0, 0.0, 0.0, 0.0, 1.6292670568908472E9, 2021-08-18 00:10:56.890
20.0, -1831092.1875, -4500000.375, -2392921.125, -4500000.375, -4500000.375, -2258368.125, -4500000.375, -859455.46875, -4500000.375, -4500000.375, -4500000.375, -4500000.375, -4500000.375, -4500000.375, -4500000.375, -4500000.375, 0.10000000149011612, 0.9280000329017639, 0.3800000250339508, 192.0, 0.0, 0.0, 0.0, 0.0, 0.0, 0.0, 0.0, 0.0, 0.0, 1.629267056890854E9, 2021-08-18 00:10:56.890
22.0, -1825515.375, -4500000.375, -2393689.3125, -4500000.375, -4500000.375, -2258268.9375, -4500000.375, -854489.0625, -4500000.375, -4500000.375, -4500000.375, -4500000.375, -4500000.375, -4500000.375, -4500000.375, -4500000.375, 0.10000000149011612, 0.9280000329017639, 0.3800000250339508, 192.0, 0.0, 0.0, 0.0, 0.0, 0.0, 0.0, 0.0, 0.0, 0.0, 1.6292670568908603E9, 2021-08-18 00:10:56.890
24.0, -1831095.9375, -4500000.375, -2393625.0, -4500000.375, -4500000.375, -2259204.9375, -4500000.375, -857927.15625, -4500000.375, -4500000.375, -4500000.375, -4500000.375, -4500000.375, -4500000.375, -4500000.375, -4500000.375, 0.10000000149011612, 0.9280000329017639, 0.3800000250339508, 192.0, 0.0, 0.0, 0.0, 0.0, 0.0, 0.0, 0.0, 0.0, 0.0, 1.629267056890867E9, 2021-08-18 00:10:56.890
26.0, -1825141.5, -4500000.375, -2392855.6875, -4500000.375, -4500000.375, -2257576.875, -4500000.375, -855437.53125, -4500000.375, -4500000.375, -4500000.375, -4500000.375, -4500000.375, -4500000.375, -4500000.375, -4500000.375, 0.10000000149011612, 0.9300000667572021, 0.3880000114440918, 192.0, 1.5, 16.0, 14.5, 8.0, 6.0, 16.0, 0.0, 0.0, 0.0, 1.6292670568908737E9, 2021-08-18 00:10:56.890
28.0, -1830654.5625, -4500000.375, -2393923.3125, -4500000.375, -4500000.375, -2259567.0, -4500000.375, -856066.78125, -4500000.375, -4500000.375, -4500000.375, -4500000.375, -4500000.375, -4500000.375, -4500000.375, -4500000.375, 0.10000000149011612, 0.9300000667572021, 0.3880000114440918, 192.0, 0.0, 0.0, 0.0, 0.0, 0.0, 0.0, 0.0, 0.0, 0.0, 1.62926705689088E9, 2021-08-18 00:10:56.890
30.0, -1825503.5625, -4500000.375, -2392067.0625, -4500000.375, -4500000.375, -2257198.6875, -4500000.375, -857311.3125, -4500000.375, -4500000.375, -4500000.375, -4500000.375, -4500000.375, -4500000.375, -4500000.375, -4500000.375, 0.10000000149011612, 0.9300000667572021, 0.3880000114440918, 192.0, 0.0, 0.0, 0.0, 0.0, 0.0, 0.0, 0.0, 0.0, 0.0, 1.6292670568908887E9, 2021-08-18 00:10:56.890
32.0, -1830032.25, -4500000.375, -2393842.3125, -4500000.375, -4500000.375, -2259664.6875, -4500000.375, -854611.96875, -4500000.375, -4500000.375, -4500000.375, -4500000.375, -4500000.375, -4500000.375, -4500000.375, -4500000.375, 0.10000000149011612, 0.9300000667572021, 0.3880000114440918, 192.0, 0.0, 0.0, 0.0, 0.0, 0.0, 0.0, 0.0, 0.0, 0.0, 1.6292670568908951E9, 2021-08-18 00:10:56.890
34.0, -1826594.0625, -4500000.375, -2392253.8125, -4500000.375, -4500000.375, -2257520.625, -4500000.375, -859046.15625, -4500000.375, -4500000.375, -4500000.375, -4500000.375, -4500000.375, -4500000.375, -4500000.375, -4500000.375, 0.10300000384449959, 0.929000049829483, 0.3880000114440918, 192.0, 1.5, 40.0, 14.5, 0.0, 6.0, 16.0, 0.0, 0.0, 0.0, 1.629267056890902E9, 2021-08-18 00:10:56.890
36.0, -1829282.8125, -4500000.375, -2394213.9375, -4500000.375, -4500000.375, -2259745.125, -4500000.375, -852851.90625, -4500000.375, -4500000.375, -4500000.375, -4500000.375, -4500000.375, -4500000.375, -4500000.375, -4500000.375, 0.10300000384449959, 0.929000049829483, 0.3880000114440918, 192.0, 0.0, 0.0, 0.0, 0.0, 0.0, 0.0, 0.0, 0.0, 0.0, 1.6292670568909087E9, 2021-08-18 00:10:56.890
38.0, -1826660.625, -4500000.375, -2391522.75, -4500000.375, -4500000.375, -2256654.1875, -4500000.375, -860119.59375, -4500000.375, -4500000.375, -4500000.375, -4500000.375, -4500000.375, -4500000.375, -4500000.375, -4500000.375, 0.10300000384449959, 0.929000049829483, 0.3880000114440918, 192.0, 0.0, 0.0, 0.0, 0.0, 0.0, 0.0, 0.0, 0.0, 0.0, 1.6292670568909152E9, 2021-08-18 00:10:56.890
40.0, -1828841.25, -4500000.375, -2395053.5625, -4500000.375, -4500000.375, -2260419.5625, -4500000.375, -851516.15625, -4500000.375, -4500000.375, -4500000.375, -4500000.375, -4500000.375, -4500000.375, -4500000.375, -4500000.375, 0.10300000384449959, 0.929000049829483, 0.3880000114440918, 192.0, 0.0, 0.0, 0.0, 0.0, 0.0, 0.0, 0.0, 0.0, 0.0, 1.629267056890922E9, 2021-08-18 00:10:56.890
42.0, -1827583.3125, -4500000.375, -2391642.375, -4500000.375, -4500000.375, -2257089.75, -4500000.375, -861332.53125, -4500000.375, -4500000.375, -4500000.375, -4500000.375, -4500000.375, -4500000.375, -4500000.375, -4500000.375, 0.10300000384449959, 0.929000049829483, 0.3880000114440918, 192.0, 0.0, 0.0, 0.0, 0.0, 0.0, 0.0, 0.0, 0.0, 0.0, 1.6292670568909285E9, 2021-08-18 00:10:56.890
44.0, -1828380.0, -4500000.375, -2395022.4375, -4500000.375, -4500000.375, -2260475.25, -4500000.375, -850736.15625, -4500000.375, -4500000.375, -4500000.375, -4500000.375, -4500000.375, -4500000.375, -4500000.375, -4500000.375, 0.1035000029951334, 0.931500032544136, 0.3890000134706497, 192.0, 1.5, 32.0, 14.5, 24.0, 6.0, 24.0, 0.0, 0.0, 0.0, 1.6292670568909352E9, 2021-08-18 00:10:56.890
46.0, -1828473.375, -4500000.375, -2391282.375, -4500000.375, -4500000.375, -2257051.6875, -4500000.375, -862475.625, -4500000.375, -4500000.375, -4500000.375, -4500000.375, -4500000.375, -4500000.375, -4500000.375, -4500000.375, 0.1035000029951334, 0.931500032544136, 0.3890000134706497, 192.0, 0.0, 0.0, 0.0, 0.0, 0.0, 0.0, 0.0, 0.0, 0.0, 1.6292670568909416E9, 2021-08-18 00:10:56.890
48.0, -1827469.125, -4500000.375, -2394836.25, -4500000.375, -4500000.375, -2260366.875, -4500000.375, -850022.15625, -4500000.375, -4500000.375, -4500000.375, -4500000.375, -4500000.375, -4500000.375, -4500000.375, -4500000.375, 0.1035000029951334, 0.931500032544136, 0.3890000134706497, 192.0, 0.0, 0.0, 0.0, 0.0, 0.0, 0.0, 0.0, 0.0, 0.0, 1.6292670568909483E9, 2021-08-18 00:10:56.890
50.0, -1828802.0625, -4500000.375, -2390958.375, -4500000.375, -4500000.375, -2257187.4375, -4500000.375, -862615.125, -4500000.375, -4500000.375, -4500000.375, -4500000.375, -4500000.375, -4500000.375, -4500000.375, -4500000.375, 0.1035000029951334, 0.931500032544136, 0.3890000134706497, 192.0, 0.0, 0.0, 0.0, 0.0, 0.0, 0.0, 0.0, 0.0, 0.0, 1.6292670568909547E9, 2021-08-18 00:10:56.890
52.0, -1826410.6875, -4500000.375, -2394458.0625, -4500000.375, -4500000.375, -2260305.1875, -4500000.375, -849743.15625, -4500000.375, -4500000.375, -4500000.375, -4500000.375, -4500000.375, -4500000.375, -4500000.375, -4500000.375, 0.1035000029951334, 0.931500032544136, 0.3890000134706497, 192.0, 0.0, 0.0, 0.0, 0.0, 0.0, 0.0, 0.0, 0.0, 0.0, 1.6292670568909616E9, 2021-08-18 00:10:56.890
54.0, -1829994.5625, -4500000.375, -2391736.6875, -4500000.375, -4500000.375, -2258322.5625, -4500000.375, -862915.5, -4500000.375, -4500000.375, -4500000.375, -4500000.375, -4500000.375, -4500000.375, -4500000.375, -4500000.375, 0.10475000459700823, 0.9347500279545784, 0.38850001245737076, 192.0, 1.5, 40.0, 14.5, 40.0, 6.0, 16.0, 0.0, 0.0, 0.0, 1.629267056890968E9, 2021-08-18 00:10:56.890
56.0, -1825680.0, -4500000.375, -2394093.375, -4500000.375, -4500000.375, -2259937.3125, -4500000.375, -849953.4375, -4500000.375, -4500000.375, -4500000.375, -4500000.375, -4500000.375, -4500000.375, -4500000.375, -4500000.375, 0.10475000459700823, 0.9347500279545784, 0.38850001245737076, 192.0, 0.0, 0.0, 0.0, 0.0, 0.0, 0.0, 0.0, 0.0, 0.0, 1.6292670568909748E9, 2021-08-18 00:10:56.890
58.0, -1829975.8125, -4500000.375, -2391473.25, -4500000.375, -4500000.375, -2258226.0, -4500000.375, -862313.0625, -4500000.375, -4500000.375, -4500000.375, -4500000.375, -4500000.375, -4500000.375, -4500000.375, -4500000.375, 0.10475000459700823, 0.9347500279545784, 0.38850001245737076, 192.0, 0.0, 0.0, 0.0, 0.0, 0.0, 0.0, 0.0, 0.0, 0.0, 1.6292670568909812E9, 2021-08-18 00:10:56.890
60.0, -1825303.5, -4500000.375, -2394084.75, -4500000.375, -4500000.375, -2260032.75, -4500000.375, -850633.125, -4500000.375, -4500000.375, -4500000.375, -4500000.375, -4500000.375, -4500000.375, -4500000.375, -4500000.375, 0.10475000459700823, 0.9347500279545784, 0.38850001245737076, 192.0, 0.0, 0.0, 0.0, 0.0, 0.0, 0.0, 0.0, 0.0, 0.0, 1.629267056890988E9, 2021-08-18 00:10:56.890
62.0, -1830496.6875, -4500000.375, -2391922.875, -4500000.375, -4500000.375, -2258912.0625, -4500000.375, -861419.90625, -4500000.375, -4500000.375, -4500000.375, -4500000.375, -4500000.375, -4500000.375, -4500000.375, -4500000.375, 0.10475000459700823, 0.9347500279545784, 0.38850001245737076, 192.0, 0.0, 0.0, 0.0, 0.0, 0.0, 0.0, 0.0, 0.0, 0.0, 1.6292670568909943E9, 2021-08-18 00:10:56.890
64.0, -1825415.0625, -4500000.375, -2394020.25, -4500000.375, -4500000.375, -2260113.1875, -4500000.375, -851896.5, -4500000.375, -4500000.375, -4500000.375, -4500000.375, -4500000.375, -4500000.375, -4500000.375, -4500000.375, 0.10237500304356217, 0.9343750216066837, 0.3852500207722187, 192.0, 1.5, 16.0, 14.5, 24.0, 5.5, 120.0, 0.0, 0.0, 0.0, 1.6292670568910031E9, 2021-08-18 00:10:56.891
66.0, -1831291.3125, -4500000.375, -2392768.3125, -4500000.375, -4500000.375, -2259862.125, -4500000.375, -860710.78125, -4500000.375, -4500000.375, -4500000.375, -4500000.375, -4500000.375, -4500000.375, -4500000.375, -4500000.375, 0.10237500304356217, 0.9343750216066837, 0.3852500207722187, 192.0, 0.0, 0.0, 0.0, 0.0, 0.0, 0.0, 0.0, 0.0, 0.0, 1.6292670568910096E9, 2021-08-18 00:10:56.891
68.0, -1825586.25, -4500000.375, -2393607.1875, -4500000.375, -4500000.375, -2259790.875, -4500000.375, -853459.6875, -4500000.375, -4500000.375, -4500000.375, -4500000.375, -4500000.375, -4500000.375, -4500000.375, -4500000.375, 0.10237500304356217, 0.9343750216066837, 0.3852500207722187, 192.0, 0.0, 0.0, 0.0, 0.0, 0.0, 0.0, 0.0, 0.0, 0.0, 1.6292670568910165E9, 2021-08-18 00:10:56.891
70.0, -1830904.5, -4500000.375, -2392629.375, -4500000.375, -4500000.375, -2259809.625, -4500000.375, -859170.09375, -4500000.375, -4500000.375, -4500000.375, -4500000.375, -4500000.375, -4500000.375, -4500000.375, -4500000.375, 0.10237500304356217, 0.9343750216066837, 0.3852500207722187, 192.0, 0.0, 0.0, 0.0, 0.0, 0.0, 0.0, 0.0, 0.0, 0.0, 1.6292670568910227E9, 2021-08-18 00:10:56.891
72.0, -1825287.9375, -4500000.375, -2392957.125, -4500000.375, -4500000.375, -2259107.8125, -4500000.375, -854753.53125, -4500000.375, -4500000.375, -4500000.375, -4500000.375, -4500000.375, -4500000.375, -4500000.375, -4500000.375, 0.10237500304356217, 0.9343750216066837, 0.3852500207722187, 192.0, 0.0, 0.0, 0.0, 0.0, 0.0, 0.0, 0.0, 0.0, 0.0, 1.6292670568910296E9, 2021-08-18 00:10:56.891
74.0, -1830858.375, -4500000.375, -2393313.9375, -4500000.375, -4500000.375, -2260384.125, -4500000.375, -857423.4375, -4500000.375, -4500000.375, -4500000.375, -4500000.375, -4500000.375, -4500000.375, -4500000.375, -4500000.375, 0.10200000554323196, 0.9320000410079956, 0.38200002908706665, 192.0, 1.5, 24.0, 14.5, 16.0, 5.5, 120.0, 0.0, 0.0, 0.0, 1.6292670568910565E9, 2021-08-18 00:10:56.891
76.0, -1825633.875, -4500000.375, -2392550.4375, -4500000.375, -4500000.375, -2258952.375, -4500000.375, -856276.03125, -4500000.375, -4500000.375, -4500000.375, -4500000.375, -4500000.375, -4500000.375, -4500000.375, -4500000.375, 0.10200000554323196, 0.9320000410079956, 0.38200002908706665, 192.0, 0.0, 0.0, 0.0, 0.0, 0.0, 0.0, 0.0, 0.0, 0.0, 1.629267056891089E9, 2021-08-18 00:10:56.891
78.0, -1830560.625, -4500000.375, -2393676.9375, -4500000.375, -4500000.375, -2261007.9375, -4500000.375, -855776.53125, -4500000.375, -4500000.375, -4500000.375, -4500000.375, -4500000.375, -4500000.375, -4500000.375, -4500000.375, 0.10200000554323196, 0.9320000410079956, 0.38200002908706665, 192.0, 0.0, 0.0, 0.0, 0.0, 0.0, 0.0, 0.0, 0.0, 0.0, 1.6292670568911011E9, 2021-08-18 00:10:56.891
80.0, -1825983.1875, -4500000.375, -2392201.875, -4500000.375, -4500000.375, -2258976.0, -4500000.375, -858105.75, -4500000.375, -4500000.375, -4500000.375, -4500000.375, -4500000.375, -4500000.375, -4500000.375, -4500000.375, 0.10200000554323196, 0.9320000410079956, 0.38200002908706665, 192.0, 0.0, 0.0, 0.0, 0.0, 0.0, 0.0, 0.0, 0.0, 0.0, 1.629267056891111E9, 2021-08-18 00:10:56.891
82.0, -1830005.4375, -4500000.375, -2393833.6875, -4500000.375, -4500000.375, -2261176.875, -4500000.375, -854275.03125, -4500000.375, -4500000.375, -4500000.375, -4500000.375, -4500000.375, -4500000.375, -4500000.375, -4500000.375, 0.10200000554323196, 0.9320000410079956, 0.38200002908706665, 192.0, 0.0, 0.0, 0.0, 0.0, 0.0, 0.0, 0.0, 0.0, 0.0, 1.6292670568911223E9, 2021-08-18 00:10:56.891
84.0, -1826681.625, -4500000.375, -2391503.8125, -4500000.375, -4500000.375, -2258421.1875, -4500000.375, -859774.6875, -4500000.375, -4500000.375, -4500000.375, -4500000.375, -4500000.375, -4500000.375, -4500000.375, -4500000.375, 0.10600000619888306, 0.9320000410079956, 0.3880000114440918, 192.0, 1.5, 40.0, 14.5, 16.0, 6.0, 16.0, 0.0, 0.0, 0.0, 1.6292670568911335E9, 2021-08-18 00:10:56.891
86.0, -1829170.6875, -4500000.375, -2393711.8125, -4500000.375, -4500000.375, -2260943.0625, -4500000.375, -852717.75, -4500000.375, -4500000.375, -4500000.375, -4500000.375, -4500000.375, -4500000.375, -4500000.375, -4500000.375, 0.10600000619888306, 0.9320000410079956, 0.3880000114440918, 192.0, 0.0, 0.0, 0.0, 0.0, 0.0, 0.0, 0.0, 0.0, 0.0, 1.629267056891143E9, 2021-08-18 00:10:56.891
88.0, -1827501.75, -4500000.375, -2391767.25, -4500000.375, -4500000.375, -2258722.125, -4500000.375, -860994.0, -4500000.375, -4500000.375, -4500000.375, -4500000.375, -4500000.375, -4500000.375, -4500000.375, -4500000.375, 0.10600000619888306, 0.9320000410079956, 0.3880000114440918, 192.0, 0.0, 0.0, 0.0, 0.0, 0.0, 0.0, 0.0, 0.0, 0.0, 1.6292670568911664E9, 2021-08-18 00:10:56.891
90.0, -1829547.75, -4500000.375, -2395277.8125, -4500000.375, -4500000.375, -2262198.9375, -4500000.375, -852217.3125, -4500000.375, -4500000.375, -4500000.375, -4500000.375, -4500000.375, -4500000.375, -4500000.375, -4500000.375, 0.10600000619888306, 0.9320000410079956, 0.3880000114440918, 192.0, 0.0, 0.0, 0.0, 0.0, 0.0, 0.0, 0.0, 0.0, 0.0, 1.6292670568911731E9, 2021-08-18 00:10:56.891
92.0, -1828418.0625, -4500000.375, -2391663.75, -4500000.375, -4500000.375, -2258885.8125, -4500000.375, -862418.25, -4500000.375, -4500000.375, -4500000.375, -4500000.375, -4500000.375, -4500000.375, -4500000.375, -4500000.375, 0.10600000619888306, 0.9320000410079956, 0.3880000114440918, 192.0, 0.0, 0.0, 0.0, 0.0, 0.0, 0.0, 0.0, 0.0, 0.0, 1.6292670568912003E9, 2021-08-18 00:10:56.891
94.0, -1827954.0, -4500000.375, -2394444.1875, -4500000.375, -4500000.375, -2261594.8125, -4500000.375, -850957.125, -4500000.375, -4500000.375, -4500000.375, -4500000.375, -4500000.375, -4500000.375, -4500000.375, -4500000.375, 0.10400000214576721, 0.9300000667572021, 0.39000001549720764, 192.0, 1.5, 32.0, 14.5, 8.0, 6.0, 24.0, 0.0, 0.0, 0.0, 1.629267056891252E9, 2021-08-18 00:10:56.891
96.0, -1828454.4375, -4500000.375, -2390762.4375, -4500000.375, -4500000.375, -2258279.0625, -4500000.375, -862855.96875, -4500000.375, -4500000.375, -4500000.375, -4500000.375, -4500000.375, -4500000.375, -4500000.375, -4500000.375, 0.10400000214576721, 0.9300000667572021, 0.39000001549720764, 192.0, 0.0, 0.0, 0.0, 0.0, 0.0, 0.0, 0.0, 0.0, 0.0, 1.6292670568912597E9, 2021-08-18 00:10:56.891
98.0, -1827390.75, -4500000.375, -2394530.4375, -4500000.375, -4500000.375, -2261711.8125, -4500000.375, -850376.15625, -4500000.375, -4500000.375, -4500000.375, -4500000.375, -4500000.375, -4500000.375, -4500000.375, -4500000.375, 0.10400000214576721, 0.9300000667572021, 0.39000001549720764, 192.0, 0.0, 0.0, 0.0, 0.0, 0.0, 0.0, 0.0, 0.0, 0.0, 1.6292670568912723E9, 2021-08-18 00:10:56.891
100.0, -1829774.625, -4500000.375, -2391253.3125, -4500000.375, -4500000.375, -2259126.75, -4500000.375, -863391.375, -4500000.375, -4500000.375, -4500000.375, -4500000.375, -4500000.375, -4500000.375, -4500000.375, -4500000.375, 0.10400000214576721, 0.9300000667572021, 0.39000001549720764, 192.0, 0.0, 0.0, 0.0, 0.0, 0.0, 0.0, 0.0, 0.0, 0.0, 1.6292670568912957E9, 2021-08-18 00:10:56.891
102.0, -1826851.6875, -4500000.375, -2394563.8125, -4500000.375, -4500000.375, -2261877.0, -4500000.375, -850467.9375, -4500000.375, -4500000.375, -4500000.375, -4500000.375, -4500000.375, -4500000.375, -4500000.375, -4500000.375, 0.10400000214576721, 0.9300000667572021, 0.39000001549720764, 192.0, 0.0, 0.0, 0.0, 0.0, 0.0, 0.0, 0.0, 0.0, 0.0, 1.6292670568913023E9, 2021-08-18 00:10:56.891
104.0, -1830031.125, -4500000.375, -2391338.625, -4500000.375, -4500000.375, -2259326.25, -4500000.375, -863222.90625, -4500000.375, -4500000.375, -4500000.375, -4500000.375, -4500000.375, -4500000.375, -4500000.375, -4500000.375, 0.10200000554323196, 0.9360000491142273, 0.39400002360343933, 192.0, 1.5, 24.0, 14.5, 32.0, 6.0, 40.0, 0.0, 0.0, 0.0, 1.6292670568913093E9, 2021-08-18 00:10:56.891
106.0, -1826061.9375, -4500000.375, -2394479.0625, -4500000.375, -4500000.375, -2261549.8125, -4500000.375, -850987.21875, -4500000.375, -4500000.375, -4500000.375, -4500000.375, -4500000.375, -4500000.375, -4500000.375, -4500000.375, 0.10200000554323196, 0.9360000491142273, 0.39400002360343933, 192.0, 0.0, 0.0, 0.0, 0.0, 0.0, 0.0, 0.0, 0.0, 0.0, 1.6292670573714032E9, 2021-08-18 00:10:57.371
108.0, -1830845.4375, -4500000.375, -2392052.625, -4500000.375, -4500000.375, -2260026.75, -4500000.375, -863130.65625, -4500000.375, -4500000.375, -4500000.375, -4500000.375, -4500000.375, -4500000.375, -4500000.375, -4500000.375, 0.10200000554323196, 0.9360000491142273, 0.39400002360343933, 192.0, 0.0, 0.0, 0.0, 0.0, 0.0, 0.0, 0.0, 0.0, 0.0, 1.6292670573715465E9, 2021-08-18 00:10:57.371
110.0, -1825874.8125, -4500000.375, -2394123.9375, -4500000.375, -4500000.375, -2261195.8125, -4500000.375, -851567.0625, -4500000.375, -4500000.375, -4500000.375, -4500000.375, -4500000.375, -4500000.375, -4500000.375, -4500000.375, 0.10200000554323196, 0.9360000491142273, 0.39400002360343933, 192.0, 0.0, 0.0, 0.0, 0.0, 0.0, 0.0, 0.0, 0.0, 0.0, 1.6292670573715537E9, 2021-08-18 00:10:57.371
112.0, -1830654.0, -4500000.375, -2391503.8125, -4500000.375, -4500000.375, -2259691.5, -4500000.375, -861576.0, -4500000.375, -4500000.375, -4500000.375, -4500000.375, -4500000.375, -4500000.375, -4500000.375, -4500000.375, 0.10200000554323196, 0.9360000491142273, 0.39400002360343933, 192.0, 0.0, 0.0, 0.0, 0.0, 0.0, 0.0, 0.0, 0.0, 0.0, 1.6292670573715625E9, 2021-08-18 00:10:57.371
114.0, -1825304.625, -4500000.375, -2393341.6875, -4500000.375, -4500000.375, -2260564.875, -4500000.375, -852523.03125, -4500000.375, -4500000.375, -4500000.375, -4500000.375, -4500000.375, -4500000.375, -4500000.375, -4500000.375, 0.10200000554323196, 0.9360000491142273, 0.39000001549720764, 192.0, 1.5, 24.0, 14.5, 32.0, 6.0, 24.0, 0.0, 0.0, 0.0, 1.6292670573715694E9, 2021-08-18 00:10:57.371
116.0, -1830994.5, -4500000.375, -2392032.75, -4500000.375, -4500000.375, -2260327.6875, -4500000.375, -860516.53125, -4500000.375, -4500000.375, -4500000.375, -4500000.375, -4500000.375, -4500000.375, -4500000.375, -4500000.375, 0.10200000554323196, 0.9360000491142273, 0.39000001549720764, 192.0, 0.0, 0.0, 0.0, 0.0, 0.0, 0.0, 0.0, 0.0, 0.0, 1.6292670573715763E9, 2021-08-18 00:10:57.371
118.0, -1825368.375, -4500000.375, -2392987.6875, -4500000.375, -4500000.375, -2260292.8125, -4500000.375, -854225.15625, -4500000.375, -4500000.375, -4500000.375, -4500000.375, -4500000.375, -4500000.375, -4500000.375, -4500000.375, 0.10200000554323196, 0.9360000491142273, 0.39000001549720764, 192.0, 0.0, 0.0, 0.0, 0.0, 0.0, 0.0, 0.0, 0.0, 0.0, 1.6292670573715963E9, 2021-08-18 00:10:57.371
120.0, -1830696.375, -4500000.375, -2392260.75, -4500000.375, -4500000.375, -2260571.8125, -4500000.375, -859087.96875, -4500000.375, -4500000.375, -4500000.375, -4500000.375, -4500000.375, -4500000.375, -4500000.375, -4500000.375, 0.10200000554323196, 0.9360000491142273, 0.39000001549720764, 192.0, 0.0, 0.0, 0.0, 0.0, 0.0, 0.0, 0.0, 0.0, 0.0, 1.6292670573716033E9, 2021-08-18 00:10:57.371
122.0, -1825095.375, -4500000.375, -2392298.8125, -4500000.375, -4500000.375, -2259741.9375, -4500000.375, -855594.1875, -4500000.375, -4500000.375, -4500000.375, -4500000.375, -4500000.375, -4500000.375, -4500000.375, -4500000.375, 0.10100000351667404, 0.9360000491142273, 0.3930000215768814, 192.0, 1.5, 16.0, 14.5, 32.0, 6.0, 48.0, 0.0, 0.0, 0.0, 1.6292670573716102E9, 2021-08-18 00:10:57.371
124.0, -1830265.5, -4500000.375, -2392250.625, -4500000.375, -4500000.375, -2260657.6875, -4500000.375, -857315.0625, -4500000.375, -4500000.375, -4500000.375, -4500000.375, -4500000.375, -4500000.375, -4500000.375, -4500000.375, 0.10100000351667404, 0.9360000491142273, 0.3930000215768814, 192.0, 0.0, 0.0, 0.0, 0.0, 0.0, 0.0, 0.0, 0.0, 0.0, 1.6292670573716168E9, 2021-08-18 00:10:57.371
126.0, -1825102.3125, -4500000.375, -2391580.125, -4500000.375, -4500000.375, -2259153.0, -4500000.375, -856780.78125, -4500000.375, -4500000.375, -4500000.375, -4500000.375, -4500000.375, -4500000.375, -4500000.375, -4500000.375, 0.10100000351667404, 0.9360000491142273, 0.3930000215768814, 192.0, 0.0, 0.0, 0.0, 0.0, 0.0, 0.0, 0.0, 0.0, 0.0, 1.6292670573716245E9, 2021-08-18 00:10:57.371
128.0, -1830153.9375, -4500000.375, -2393098.125, -4500000.375, -4500000.375, -2261377.125, -4500000.375, -855493.3125, -4500000.375, -4500000.375, -4500000.375, -4500000.375, -4500000.375, -4500000.375, -4500000.375, -4500000.375, 0.10100000351667404, 0.9360000491142273, 0.3930000215768814, 192.0, 0.0, 0.0, 0.0, 0.0, 0.0, 0.0, 0.0, 0.0, 0.0, 1.6292670573716311E9, 2021-08-18 00:10:57.371
130.0, -1825880.0625, -4500000.375, -2391719.625, -4500000.375, -4500000.375, -2259280.6875, -4500000.375, -858736.125, -4500000.375, -4500000.375, -4500000.375, -4500000.375, -4500000.375, -4500000.375, -4500000.375, -4500000.375, 0.10100000351667404, 0.9360000491142273, 0.3930000215768814, 192.0, 0.0, 0.0, 0.0, 0.0, 0.0, 0.0, 0.0, 0.0, 0.0, 1.6292670573716383E9, 2021-08-18 00:10:57.371
132.0, -1829339.0625, -4500000.375, -2393549.8125, -4500000.375, -4500000.375, -2261625.375, -4500000.375, -854149.03125, -4500000.375, -4500000.375, -4500000.375, -4500000.375, -4500000.375, -4500000.375, -4500000.375, -4500000.375, 0.101500004529953, 0.9310000538825989, 0.3905000165104866, 192.0, 1.5, 24.0, 14.0, 120.0, 6.0, 16.0, 0.0, 0.0, 0.0, 1.6292670573716512E9, 2021-08-18 00:10:57.371
134.0, -1826271.1875, -4500000.375, -2391068.25, -4500000.375, -4500000.375, -2258813.4375, -4500000.375, -860007.46875, -4500000.375, -4500000.375, -4500000.375, -4500000.375, -4500000.375, -4500000.375, -4500000.375, -4500000.375, 0.101500004529953, 0.9310000538825989, 0.3905000165104866, 192.0, 0.0, 0.0, 0.0, 0.0, 0.0, 0.0, 0.0, 0.0, 0.0, 1.629267057371658E9, 2021-08-18 00:10:57.371
136.0, -1828904.625, -4500000.375, -2393656.125, -4500000.375, -4500000.375, -2261768.0625, -4500000.375, -852525.75, -4500000.375, -4500000.375, -4500000.375, -4500000.375, -4500000.375, -4500000.375, -4500000.375, -4500000.375, 0.101500004529953, 0.9310000538825989, 0.3905000165104866, 192.0, 0.0, 0.0, 0.0, 0.0, 0.0, 0.0, 0.0, 0.0, 0.0, 1.6292670573716652E9, 2021-08-18 00:10:57.371
138.0, -1827105.375, -4500000.375, -2390803.3125, -4500000.375, -4500000.375, -2258827.875, -4500000.375, -861565.875, -4500000.375, -4500000.375, -4500000.375, -4500000.375, -4500000.375, -4500000.375, -4500000.375, -4500000.375, 0.101500004529953, 0.9310000538825989, 0.3905000165104866, 192.0, 0.0, 0.0, 0.0, 0.0, 0.0, 0.0, 0.0, 0.0, 0.0, 1.629267057371672E9, 2021-08-18 00:10:57.371
140.0, -1828000.125, -4500000.375, -2393645.8125, -4500000.375, -4500000.375, -2261896.875, -4500000.375, -851444.8125, -4500000.375, -4500000.375, -4500000.375, -4500000.375, -4500000.375, -4500000.375, -4500000.375, -4500000.375, 0.101500004529953, 0.9310000538825989, 0.3905000165104866, 192.0, 0.0, 0.0, 0.0, 0.0, 0.0, 0.0, 0.0, 0.0, 0.0, 1.6292670573716788E9, 2021-08-18 00:10:57.371
142.0, -1828003.3125, -4500000.375, -2390668.125, -4500000.375, -4500000.375, -2259042.9375, -4500000.375, -862594.21875, -4500000.375, -4500000.375, -4500000.375, -4500000.375, -4500000.375, -4500000.375, -4500000.375, -4500000.375, 0.10075000301003456, 0.9295000433921814, 0.3932500220835209, 192.0, 1.5, 16.0, 14.5, 0.0, 6.0, 48.0, 0.0, 0.0, 0.0, 1.6292670573716855E9, 2021-08-18 00:10:57.371
144.0, -1827520.5, -4500000.375, -2393903.4375, -4500000.375, -4500000.375, -2261970.9375, -4500000.375, -850928.71875, -4500000.375, -4500000.375, -4500000.375, -4500000.375, -4500000.375, -4500000.375, -4500000.375, -4500000.375, 0.10075000301003456, 0.9295000433921814, 0.3932500220835209, 192.0, 0.0, 0.0, 0.0, 0.0, 0.0, 0.0, 0.0, 0.0, 0.0, 1.6292670573716924E9, 2021-08-18 00:10:57.371
146.0, -1828878.375, -4500000.375, -2390876.25, -4500000.375, -4500000.375, -2259174.375, -4500000.375, -863438.53125, -4500000.375, -4500000.375, -4500000.375, -4500000.375, -4500000.375, -4500000.375, -4500000.375, -4500000.375, 0.10075000301003456, 0.9295000433921814, 0.3932500220835209, 192.0, 0.0, 0.0, 0.0, 0.0, 0.0, 0.0, 0.0, 0.0, 0.0, 1.629267057371699E9, 2021-08-18 00:10:57.371
148.0, -1826470.3125, -4500000.375, -2393550.9375, -4500000.375, -4500000.375, -2261564.8125, -4500000.375, -850375.125, -4500000.375, -4500000.375, -4500000.375, -4500000.375, -4500000.375, -4500000.375, -4500000.375, -4500000.375, 0.10075000301003456, 0.9295000433921814, 0.3932500220835209, 192.0, 0.0, 0.0, 0.0, 0.0, 0.0, 0.0, 0.0, 0.0, 0.0, 1.629267057371706E9, 2021-08-18 00:10:57.371
150.0, -1828839.1875, -4500000.375, -2390167.6875, -4500000.375, -4500000.375, -2258887.5, -4500000.375, -863269.03125, -4500000.375, -4500000.375, -4500000.375, -4500000.375, -4500000.375, -4500000.375, -4500000.375, -4500000.375, 0.10075000301003456, 0.9295000433921814, 0.3932500220835209, 192.0, 0.0, 0.0, 0.0, 0.0, 0.0, 0.0, 0.0, 0.0, 0.0, 1.6292670573717127E9, 2021-08-18 00:10:57.371
152.0, -1825919.25, -4500000.375, -2393550.9375, -4500000.375, -4500000.375, -2261607.75, -4500000.375, -850339.21875, -4500000.375, -4500000.375, -4500000.375, -4500000.375, -4500000.375, -4500000.375, -4500000.375, -4500000.375, 0.10037500225007534, 0.9297500550746918, 0.39462502487003803, 192.0, 1.5, 16.0, 14.5, 8.0, 6.0, 48.0, 0.0, 0.0, 0.0, 1.6292670573717196E9, 2021-08-18 00:10:57.371
154.0, -1829757.5625, -4500000.375, -2390643.375, -4500000.375, -4500000.375, -2259590.625, -4500000.375, -863204.15625, -4500000.375, -4500000.375, -4500000.375, -4500000.375, -4500000.375, -4500000.375, -4500000.375, -4500000.375, 0.10037500225007534, 0.9297500550746918, 0.39462502487003803, 192.0, 0.0, 0.0, 0.0, 0.0, 0.0, 0.0, 0.0, 0.0, 0.0, 1.6292670573717265E9, 2021-08-18 00:10:57.371
156.0, -1825056.1875, -4500000.375, -2392977.0, -4500000.375, -4500000.375, -2261196.75, -4500000.375, -850766.71875, -4500000.375, -4500000.375, -4500000.375, -4500000.375, -4500000.375, -4500000.375, -4500000.375, -4500000.375, 0.10037500225007534, 0.9297500550746918, 0.39462502487003803, 192.0, 0.0, 0.0, 0.0, 0.0, 0.0, 0.0, 0.0, 0.0, 0.0, 1.6292670573717334E9, 2021-08-18 00:10:57.371
158.0, -1830164.25, -4500000.375, -2390905.3125, -4500000.375, -4500000.375, -2259990.375, -4500000.375, -862545.9375, -4500000.375, -4500000.375, -4500000.375, -4500000.375, -4500000.375, -4500000.375, -4500000.375, -4500000.375, 0.10037500225007534, 0.9297500550746918, 0.39462502487003803, 192.0, 0.0, 0.0, 0.0, 0.0, 0.0, 0.0, 0.0, 0.0, 0.0, 1.62926705737174E9, 2021-08-18 00:10:57.371
160.0, -1824963.9375, -4500000.375, -2392983.9375, -4500000.375, -4500000.375, -2261052.5625, -4500000.375, -851902.40625, -4500000.375, -4500000.375, -4500000.375, -4500000.375, -4500000.375, -4500000.375, -4500000.375, -4500000.375, 0.10037500225007534, 0.9297500550746918, 0.39462502487003803, 192.0, 0.0, 0.0, 0.0, 0.0, 0.0, 0.0, 0.0, 0.0, 0.0, 1.6292670573717473E9, 2021-08-18 00:10:57.371
162.0, -1830092.8125, -4500000.375, -2391184.6875, -4500000.375, -4500000.375, -2260182.375, -4500000.375, -861366.84375, -4500000.375, -4500000.375, -4500000.375, -4500000.375, -4500000.375, -4500000.375, -4500000.375, -4500000.375, 0.10018750187009573, 0.9308750480413437, 0.3993125194683671, 192.0, 1.5, 16.0, 14.5, 16.0, 6.0, 80.0, 0.0, 0.0, 0.0, 1.629267057371754E9, 2021-08-18 00:10:57.371
164.0, -1824269.8125, -4500000.375, -2392522.6875, -4500000.375, -4500000.375, -2260508.625, -4500000.375, -852812.71875, -4500000.375, -4500000.375, -4500000.375, -4500000.375, -4500000.375, -4500000.375, -4500000.375, -4500000.375, 0.10018750187009573, 0.9308750480413437, 0.3993125194683671, 192.0, 0.0, 0.0, 0.0, 0.0, 0.0, 0.0, 0.0, 0.0, 0.0, 1.6292670573717608E9, 2021-08-18 00:10:57.371
166.0, -1830037.5, -4500000.375, -2391411.0, -4500000.375, -4500000.375, -2260556.25, -4500000.375, -860109.9375, -4500000.375, -4500000.375, -4500000.375, -4500000.375, -4500000.375, -4500000.375, -4500000.375, -4500000.375, 0.10018750187009573, 0.9308750480413437, 0.3993125194683671, 192.0, 0.0, 0.0, 0.0, 0.0, 0.0, 0.0, 0.0, 0.0, 0.0, 1.6292670573717701E9, 2021-08-18 00:10:57.371
168.0, -1825147.875, -4500000.375, -2392587.5625, -4500000.375, -4500000.375, -2260728.9375, -4500000.375, -854874.84375, -4500000.375, -4500000.375, -4500000.375, -4500000.375, -4500000.375, -4500000.375, -4500000.375, -4500000.375, 0.10018750187009573, 0.9308750480413437, 0.3993125194683671, 192.0, 0.0, 0.0, 0.0, 0.0, 0.0, 0.0, 0.0, 0.0, 0.0, 1.629267057371777E9, 2021-08-18 00:10:57.371
170.0, -1830336.375, -4500000.375, -2391702.375, -4500000.375, -4500000.375, -2260823.4375, -4500000.375, -858887.90625, -4500000.375, -4500000.375, -4500000.375, -4500000.375, -4500000.375, -4500000.375, -4500000.375, -4500000.375, 0.10018750187009573, 0.9308750480413437, 0.3993125194683671, 192.0, 0.0, 0.0, 0.0, 0.0, 0.0, 0.0, 0.0, 0.0, 0.0, 1.6292670573717837E9, 2021-08-18 00:10:57.371
172.0, -1824974.625, -4500000.375, -2391705.5625, -4500000.375, -4500000.375, -2259897.0, -4500000.375, -856129.03125, -4500000.375, -4500000.375, -4500000.375, -4500000.375, -4500000.375, -4500000.375, -4500000.375, -4500000.375, 0.10400000214576721, 0.9300000667572021, 0.4020000100135803, 192.0, 1.5, 32.0, 14.5, 8.0, 6.0, 72.0, 0.0, 0.0, 0.0, 1.629267057371791E9, 2021-08-18 00:10:57.371
174.0, -1830403.5, -4500000.375, -2392430.25, -4500000.375, -4500000.375, -2261380.875, -4500000.375, -857347.21875, -4500000.375, -4500000.375, -4500000.375, -4500000.375, -4500000.375, -4500000.375, -4500000.375, -4500000.375, 0.10400000214576721, 0.9300000667572021, 0.4020000100135803, 192.0, 0.0, 0.0, 0.0, 0.0, 0.0, 0.0, 0.0, 0.0, 0.0, 1.6292670573717976E9, 2021-08-18 00:10:57.371
176.0, -1825367.25, -4500000.375, -2391284.4375, -4500000.375, -4500000.375, -2259463.5, -4500000.375, -858131.53125, -4500000.375, -4500000.375, -4500000.375, -4500000.375, -4500000.375, -4500000.375, -4500000.375, -4500000.375, 0.10400000214576721, 0.9300000667572021, 0.4020000100135803, 192.0, 0.0, 0.0, 0.0, 0.0, 0.0, 0.0, 0.0, 0.0, 0.0, 1.6292670573718045E9, 2021-08-18 00:10:57.371
178.0, -1830192.0, -4500000.375, -2393032.125, -4500000.375, -4500000.375, -2261987.4375, -4500000.375, -855627.9375, -4500000.375, -4500000.375, -4500000.375, -4500000.375, -4500000.375, -4500000.375, -4500000.375, -4500000.375, 0.10400000214576721, 0.9300000667572021, 0.4020000100135803, 192.0, 0.0, 0.0, 0.0, 0.0, 0.0, 0.0, 0.0, 0.0, 0.0, 1.6292670573718112E9, 2021-08-18 00:10:57.371
180.0, -1826316.1875, -4500000.375, -2391195.375, -4500000.375, -4500000.375, -2259638.4375, -4500000.375, -859797.75, -4500000.375, -4500000.375, -4500000.375, -4500000.375, -4500000.375, -4500000.375, -4500000.375, -4500000.375, 0.10400000214576721, 0.9300000667572021, 0.4020000100135803, 192.0, 0.0, 0.0, 0.0, 0.0, 0.0, 0.0, 0.0, 0.0, 0.0, 1.629267057371818E9, 2021-08-18 00:10:57.371
182.0, -1829628.75, -4500000.375, -2393218.875, -4500000.375, -4500000.375, -2262040.125, -4500000.375, -854347.5, -4500000.375, -4500000.375, -4500000.375, -4500000.375, -4500000.375, -4500000.375, -4500000.375, -4500000.375, 0.10000000149011612, 0.9320000410079956, 0.3960000276565552, 192.0, 1.5, 16.0, 14.5, 16.0, 6.0, 48.0, 0.0, 0.0, 0.0, 1.6292670573718247E9, 2021-08-18 00:10:57.371
184.0, -1826756.625, -4500000.375, -2390715.9375, -4500000.375, -4500000.375, -2259042.0, -4500000.375, -861253.59375, -4500000.375, -4500000.375, -4500000.375, -4500000.375, -4500000.375, -4500000.375, -4500000.375, -4500000.375, 0.10000000149011612, 0.9320000410079956, 0.3960000276565552, 192.0, 0.0, 0.0, 0.0, 0.0, 0.0, 0.0, 0.0, 0.0, 0.0, 1.629267057371832E9, 2021-08-18 00:10:57.371
186.0, -1828648.6875, -4500000.375, -2393244.5625, -4500000.375, -4500000.375, -2261713.875, -4500000.375, -852746.15625, -4500000.375, -4500000.375, -4500000.375, -4500000.375, -4500000.375, -4500000.375, -4500000.375, -4500000.375, 0.10000000149011612, 0.9320000410079956, 0.3960000276565552, 192.0, 0.0, 0.0, 0.0, 0.0, 0.0, 0.0, 0.0, 0.0, 0.0, 1.6292670573718576E9, 2021-08-18 00:10:57.371
188.0, -1827600.0, -4500000.375, -2390593.5, -4500000.375, -4500000.375, -2259044.0625, -4500000.375, -862686.46875, -4500000.375, -4500000.375, -4500000.375, -4500000.375, -4500000.375, -4500000.375, -4500000.375, -4500000.375, 0.10000000149011612, 0.9320000410079956, 0.3960000276565552, 192.0, 0.0, 0.0, 0.0, 0.0, 0.0, 0.0, 0.0, 0.0, 0.0, 1.6292670573718648E9, 2021-08-18 00:10:57.371
190.0, -1828441.125, -4500000.375, -2393717.8125, -4500000.375, -4500000.375, -2262288.375, -4500000.375, -852216.75, -4500000.375, -4500000.375, -4500000.375, -4500000.375, -4500000.375, -4500000.375, -4500000.375, -4500000.375, 0.10000000149011612, 0.9320000410079956, 0.3960000276565552, 192.0, 0.0, 0.0, 0.0, 0.0, 0.0, 0.0, 0.0, 0.0, 0.0, 1.629267057371872E9, 2021-08-18 00:10:57.371
192.0, -1828388.0625, -4500000.375, -2390374.125, -4500000.375, -4500000.375, -2259110.0625, -4500000.375, -863388.09375, -4500000.375, -4500000.375, -4500000.375, -4500000.375, -4500000.375, -4500000.375, -4500000.375, -4500000.375, 0.10600000619888306, 0.9280000329017639, 0.398000031709671, 192.0, 1.5, 40.0, 14.5, 0.0, 6.0, 56.0, 0.0, 0.0, 0.0, 1.629267057371879E9, 2021-08-18 00:10:57.371
194.0, -1827544.125, -4500000.375, -2393584.6875, -4500000.375, -4500000.375, -2262022.3125, -4500000.375, -851198.53125, -4500000.375, -4500000.375, -4500000.375, -4500000.375, -4500000.375, -4500000.375, -4500000.375, -4500000.375, 0.10600000619888306, 0.9280000329017639, 0.398000031709671, 192.0, 0.0, 0.0, 0.0, 0.0, 0.0, 0.0, 0.0, 0.0, 0.0, 1.629267057371886E9, 2021-08-18 00:10:57.371
196.0, -1828869.1875, -4500000.375, -2390059.3125, -4500000.375, -4500000.375, -2258962.5, -4500000.375, -863652.09375, -4500000.375, -4500000.375, -4500000.375, -4500000.375, -4500000.375, -4500000.375, -4500000.375, -4500000.375, 0.10600000619888306, 0.9280000329017639, 0.398000031709671, 192.0, 0.0, 0.0, 0.0, 0.0, 0.0, 0.0, 0.0, 0.0, 0.0, 1.6292670573718934E9, 2021-08-18 00:10:57.371
198.0, -1826963.8125, -4500000.375, -2393630.4375, -4500000.375, -4500000.375, -2262111.9375, -4500000.375, -851077.875, -4500000.375, -4500000.375, -4500000.375, -4500000.375, -4500000.375, -4500000.375, -4500000.375, -4500000.375, 0.10600000619888306, 0.9280000329017639, 0.398000031709671, 192.0, 0.0, 0.0, 0.0, 0.0, 0.0, 0.0, 0.0, 0.0, 0.0, 1.6292670573719003E9, 2021-08-18 00:10:57.371
200.0, -1829739.75, -4500000.375, -2390239.5, -4500000.375, -4500000.375, -2259427.125, -4500000.375, -864048.0, -4500000.375, -4500000.375, -4500000.375, -4500000.375, -4500000.375, -4500000.375, -4500000.375, -4500000.375, 0.10600000619888306, 0.9280000329017639, 0.398000031709671, 192.0, 0.0, 0.0, 0.0, 0.0, 0.0, 0.0, 0.0, 0.0, 0.0, 1.6292670573719108E9, 2021-08-18 00:10:57.371
202.0, -1826912.8125, -4500000.375, -2393909.8125, -4500000.375, -4500000.375, -2262385.5, -4500000.375, -851529.5625, -4500000.375, -4500000.375, -4500000.375, -4500000.375, -4500000.375, -4500000.375, -4500000.375, -4500000.375, 0.10400000214576721, 0.9300000667572021, 0.4020000100135803, 192.0, 1.5, 32.0, 14.5, 8.0, 6.0, 72.0, 0.0, 0.0, 0.0, 1.6292670573719177E9, 2021-08-18 00:10:57.371
204.0, -1830375.5625, -4500000.375, -2390403.1875, -4500000.375, -4500000.375, -2259715.6875, -4500000.375, -864004.5, -4500000.375, -4500000.375, -4500000.375, -4500000.375, -4500000.375, -4500000.375, -4500000.375, -4500000.375, 0.10400000214576721, 0.9300000667572021, 0.4020000100135803, 192.0, 0.0, 0.0, 0.0, 0.0, 0.0, 0.0, 0.0, 0.0, 0.0, 1.6292670573719249E9, 2021-08-18 00:10:57.371
206.0, -1825754.625, -4500000.375, -2392862.625, -4500000.375, -4500000.375, -2261336.25, -4500000.375, -851947.40625, -4500000.375, -4500000.375, -4500000.375, -4500000.375, -4500000.375, -4500000.375, -4500000.375, -4500000.375, 0.10400000214576721, 0.9300000667572021, 0.4020000100135803, 192.0, 0.0, 0.0, 0.0, 0.0, 0.0, 0.0, 0.0, 0.0, 0.0, 1.629267057371932E9, 2021-08-18 00:10:57.371
208.0, -1831446.1875, -4500000.375, -2391171.75, -4500000.375, -4500000.375, -2260496.25, -4500000.375, -863248.125, -4500000.375, -4500000.375, -4500000.375, -4500000.375, -4500000.375, -4500000.375, -4500000.375, -4500000.375, 0.10400000214576721, 0.9300000667572021, 0.4020000100135803, 192.0, 0.0, 0.0, 0.0, 0.0, 0.0, 0.0, 0.0, 0.0, 0.0, 1.6292670573719392E9, 2021-08-18 00:10:57.371
210.0, -1825387.6875, -4500000.375, -2392484.4375, -4500000.375, -4500000.375, -2260680.75, -4500000.375, -852739.78125, -4500000.375, -4500000.375, -4500000.375, -4500000.375, -4500000.375, -4500000.375, -4500000.375, -4500000.375, 0.10300000384449959, 0.9280000627040863, 0.39900001883506775, 192.0, 1.5, 24.0, 14.0, 120.0, 6.0, 48.0, 0.0, 0.0, 0.0, 1.6292670573719594E9, 2021-08-18 00:10:57.371
212.0, -1831303.125, -4500000.375, -2391273.75, -4500000.375, -4500000.375, -2260445.8125, -4500000.375, -861927.9375, -4500000.375, -4500000.375, -4500000.375, -4500000.375, -4500000.375, -4500000.375, -4500000.375, -4500000.375, 0.10300000384449959, 0.9280000627040863, 0.39900001883506775, 192.0, 0.0, 0.0, 0.0, 0.0, 0.0, 0.0, 0.0, 0.0, 0.0, 1.6292670573719661E9, 2021-08-18 00:10:57.371
214.0, -1826176.3125, -4500000.375, -2392478.0625, -4500000.375, -4500000.375, -2260722.0, -4500000.375, -854446.21875, -4500000.375, -4500000.375, -4500000.375, -4500000.375, -4500000.375, -4500000.375, -4500000.375, -4500000.375, 0.10300000384449959, 0.9280000627040863, 0.39900001883506775, 192.0, 0.0, 0.0, 0.0, 0.0, 0.0, 0.0, 0.0, 0.0, 0.0, 1.629267057371973E9, 2021-08-18 00:10:57.371
216.0, -1831915.6875, -4500000.375, -2391235.125, -4500000.375, -4500000.375, -2260533.75, -4500000.375, -860588.4375, -4500000.375, -4500000.375, -4500000.375, -4500000.375, -4500000.375, -4500000.375, -4500000.375, -4500000.375, 0.10300000384449959, 0.9280000627040863, 0.39900001883506775, 192.0, 0.0, 0.0, 0.0, 0.0, 0.0, 0.0, 0.0, 0.0, 0.0, 1.6292670573719797E9, 2021-08-18 00:10:57.371
218.0, -1826166.0, -4500000.375, -2391776.4375, -4500000.375, -4500000.375, -2260149.75, -4500000.375, -855766.40625, -4500000.375, -4500000.375, -4500000.375, -4500000.375, -4500000.375, -4500000.375, -4500000.375, -4500000.375, 0.10300000384449959, 0.9280000627040863, 0.39900001883506775, 192.0, 0.0, 0.0, 0.0, 0.0, 0.0, 0.0, 0.0, 0.0, 0.0, 1.6292670573719869E9, 2021-08-18 00:10:57.371
220.0, -1832166.75, -4500000.375, -2392217.4375, -4500000.375, -4500000.375, -2261376.0, -4500000.375, -859047.75, -4500000.375, -4500000.375, -4500000.375, -4500000.375, -4500000.375, -4500000.375, -4500000.375, -4500000.375, 0.1035000029951334, 0.9310000389814377, 0.3995000123977661, 192.0, 1.5, 32.0, 14.5, 24.0, 6.0, 64.0, 0.0, 0.0, 0.0, 1.6292670573719935E9, 2021-08-18 00:10:57.371
222.0, -1826766.9375, -4500000.375, -2391767.8125, -4500000.375, -4500000.375, -2260054.6875, -4500000.375, -857565.5625, -4500000.375, -4500000.375, -4500000.375, -4500000.375, -4500000.375, -4500000.375, -4500000.375, -4500000.375, 0.1035000029951334, 0.9310000389814377, 0.3995000123977661, 192.0, 0.0, 0.0, 0.0, 0.0, 0.0, 0.0, 0.0, 0.0, 0.0, 1.6292670573720005E9, 2021-08-18 00:10:57.372
224.0, -1831527.75, -4500000.375, -2392345.5, -4500000.375, -4500000.375, -2261384.0625, -4500000.375, -857494.78125, -4500000.375, -4500000.375, -4500000.375, -4500000.375, -4500000.375, -4500000.375, -4500000.375, -4500000.375, 0.1035000029951334, 0.9310000389814377, 0.3995000123977661, 192.0, 0.0, 0.0, 0.0, 0.0, 0.0, 0.0, 0.0, 0.0, 0.0, 1.6292670573720071E9, 2021-08-18 00:10:57.372
226.0, -1827060.9375, -4500000.375, -2391025.875, -4500000.375, -4500000.375, -2259375.0, -4500000.375, -859080.0, -4500000.375, -4500000.375, -4500000.375, -4500000.375, -4500000.375, -4500000.375, -4500000.375, -4500000.375, 0.1035000029951334, 0.9310000389814377, 0.3995000123977661, 192.0, 0.0, 0.0, 0.0, 0.0, 0.0, 0.0, 0.0, 0.0, 0.0, 1.6292670576239753E9, 2021-08-18 00:10:57.623
228.0, -1831223.0625, -4500000.375, -2392627.6875, -4500000.375, -4500000.375, -2261688.1875, -4500000.375, -855785.15625, -4500000.375, -4500000.375, -4500000.375, -4500000.375, -4500000.375, -4500000.375, -4500000.375, -4500000.375, 0.1035000029951334, 0.9310000389814377, 0.3995000123977661, 192.0, 0.0, 0.0, 0.0, 0.0, 0.0, 0.0, 0.0, 0.0, 0.0, 1.629267057623984E9, 2021-08-18 00:10:57.623
