%OpenBCI Raw EEG Data
%Number of channels = 16
%Sample Rate = 125 Hz
%Board = OpenBCI_GUI$BoardCytonSerialDaisy
Sample Index, EXG Channel 0, EXG Channel 1, EXG Channel 2, EXG Channel 3, EXG Channel 4, EXG Channel 5, EXG Channel 6, EXG Channel 7, EXG Channel 8, EXG Channel 9, EXG Channel 10, EXG Channel 11, EXG Channel 12, EXG Channel 13, EXG Channel 14, EXG Channel 15, Accel Channel 0, Accel Channel 1, Accel Channel 2, Other, Other, Other, Other, Other, Other, Other, Analog Channel 0, Analog Channel 1, Analog Channel 2, Timestamp, Timestamp (Formatted)
202.0, -1667732.25, -2318527.5, -3593737.125, -4500000.375, -4500000.375, -3221247.375, -2456722.3125, -3055182.75, -4500000.375, -4500000.375, -4500000.375, -4500000.375, -4500000.375, -4500000.375, -4500000.375, -4500000.375, 0.01600000075995922, 0.46400001645088196, 0.20800000429153442, 192.0, 0.5, 0.0, 14.5, 0.0, 6.5, 0.0, 0.0, 0.0, 0.0, 1.6298540339898024E9, 2021-08-24 19:13:53.989
204.0, -1673561.25, -2326015.6875, -3595566.375, -4500000.375, -4500000.375, -3216907.125, -2435789.25, -3051936.1875, -4500000.375, -4500000.375, -4500000.375, -4500000.375, -4500000.375, -4500000.375, -4500000.375, -4500000.375, 0.01600000075995922, 0.46400001645088196, 0.20800000429153442, 192.0, 0.0, 0.0, 0.0, 0.0, 0.0, 0.0, 0.0, 0.0, 0.0, 1.62985403398981E9, 2021-08-24 19:13:53.989
206.0, -1662967.125, -2310548.4375, -3594543.375, -4500000.375, -4500000.375, -3221335.875, -2450572.125, -3055335.75, -4500000.375, -4500000.375, -4500000.375, -4500000.375, -4500000.375, -4500000.375, -4500000.375, -4500000.375, 0.01600000075995922, 0.46400001645088196, 0.20800000429153442, 192.0, 0.0, 0.0, 0.0, 0.0, 0.0, 0.0, 0.0, 0.0, 0.0, 1.629854033989817E9, 2021-08-24 19:13:53.989
208.0, -1678081.875, -2333993.0625, -3595521.75, -4500000.375, -4500000.375, -3217815.375, -2443243.6875, -3053020.875, -4500000.375, -4500000.375, -4500000.375, -4500000.375, -4500000.375, -4500000.375, -4500000.375, -4500000.375, 0.01600000075995922, 0.46400001645088196, 0.20800000429153442, 192.0, 0.0, 0.0, 0.0, 0.0, 0.0, 0.0, 0.0, 0.0, 0.0, 1.6298540339898236E9, 2021-08-24 19:13:53.989
210.0, -1658483.4375, -2303525.25, -3595031.625, -4500000.375, -4500000.375, -3220866.0, -2443829.4375, -3054897.9375, -4500000.375, -4500000.375, -4500000.375, -4500000.375, -4500000.375, -4500000.375, -4500000.375, -4500000.375, 0.01600000075995922, 0.46400001645088196, 0.20800000429153442, 192.0, 0.0, 0.0, 0.0, 0.0, 0.0, 0.0, 0.0, 0.0, 0.0, 1.6298540339898305E9, 2021-08-24 19:13:53.989
212.0, -1682093.25, -2340463.125, -3595083.0, -4500000.375, -4500000.375, -3218269.5, -2450061.375, -3053796.0, -4500000.375, -4500000.375, -4500000.375, -4500000.375, -4500000.375, -4500000.375, -4500000.375, -4500000.375, 0.023000000976026058, 0.6940000206232071, 0.3160000145435333, 192.0, 0.0, 120.0, 14.0, 112.0, 6.5, 32.0, 0.0, 0.0, 0.0, 1.6298540339898372E9, 2021-08-24 19:13:53.989
214.0, -1654799.25, -2297121.1875, -3595522.875, -4500000.375, -4500000.375, -3220091.25, -2436601.5, -3053965.125, -4500000.375, -4500000.375, -4500000.375, -4500000.375, -4500000.375, -4500000.375, -4500000.375, -4500000.375, 0.023000000976026058, 0.6940000206232071, 0.3160000145435333, 192.0, 0.0, 0.0, 0.0, 0.0, 0.0, 0.0, 0.0, 0.0, 0.0, 1.629854033989844E9, 2021-08-24 19:13:53.989
216.0, -1685328.0, -2346022.6875, -3594584.625, -4500000.375, -4500000.375, -3218805.75, -2456960.0625, -3054120.0, -4500000.375, -4500000.375, -4500000.375, -4500000.375, -4500000.375, -4500000.375, -4500000.375, -4500000.375, 0.023000000976026058, 0.6940000206232071, 0.3160000145435333, 192.0, 0.0, 0.0, 0.0, 0.0, 0.0, 0.0, 0.0, 0.0, 0.0, 1.6298540339898508E9, 2021-08-24 19:13:53.989
218.0, -1652418.0, -2293149.375, -3595841.625, -4500000.375, -4500000.375, -3219247.125, -2430473.625, -3053137.875, -4500000.375, -4500000.375, -4500000.375, -4500000.375, -4500000.375, -4500000.375, -4500000.375, -4500000.375, 0.023000000976026058, 0.6940000206232071, 0.3160000145435333, 192.0, 0.0, 0.0, 0.0, 0.0, 0.0, 0.0, 0.0, 0.0, 0.0, 1.6298540339898577E9, 2021-08-24 19:13:53.989
220.0, -1687688.4375, -2349873.9375, -3594006.0, -4500000.375, -4500000.375, -3219214.875, -2462711.25, -3055308.75, -4500000.375, -4500000.375, -4500000.375, -4500000.375, -4500000.375, -4500000.375, -4500000.375, -4500000.375, 0.023000000976026058, 0.6940000206232071, 0.3160000145435333, 192.0, 0.0, 0.0, 0.0, 0.0, 0.0, 0.0, 0.0, 0.0, 0.0, 1.6298540339898643E9, 2021-08-24 19:13:53.989
222.0, -1650811.875, -2289867.5625, -3596325.375, -4500000.375, -4500000.375, -3218543.625, -2424761.0625, -3052760.25, -4500000.375, -4500000.375, -4500000.375, -4500000.375, -4500000.375, -4500000.375, -4500000.375, -4500000.375, 0.030000001192092896, 0.9280000329017639, 0.42000001668930054, 192.0, 0.0, 120.0, 14.5, 0.0, 6.5, 16.0, 0.0, 0.0, 0.0, 1.6298540339898713E9, 2021-08-24 19:13:53.989
224.0, -1689074.625, -2351980.5, -3593591.625, -4500000.375, -4500000.375, -3219921.375, -2467810.6875, -3056269.125, -4500000.375, -4500000.375, -4500000.375, -4500000.375, -4500000.375, -4500000.375, -4500000.375, -4500000.375, 0.030000001192092896, 0.9280000329017639, 0.42000001668930054, 192.0, 0.0, 0.0, 0.0, 0.0, 0.0, 0.0, 0.0, 0.0, 0.0, 1.629854033989878E9, 2021-08-24 19:13:53.989
226.0, -1650834.9375, -2289599.25, -3596515.875, -4500000.375, -4500000.375, -3217834.125, -2420717.4375, -3052351.5, -4500000.375, -4500000.375, -4500000.375, -4500000.375, -4500000.375, -4500000.375, -4500000.375, -4500000.375, 0.030000001192092896, 0.9280000329017639, 0.42000001668930054, 192.0, 0.0, 0.0, 0.0, 0.0, 0.0, 0.0, 0.0, 0.0, 0.0, 1.6298540339898846E9, 2021-08-24 19:13:53.989
228.0, -1688498.4375, -2351712.1875, -3593469.0, -4500000.375, -4500000.375, -3220528.5, -2470896.1875, -3056476.6875, -4500000.375, -4500000.375, -4500000.375, -4500000.375, -4500000.375, -4500000.375, -4500000.375, -4500000.375, 0.030000001192092896, 0.9280000329017639, 0.42000001668930054, 192.0, 0.0, 0.0, 0.0, 0.0, 0.0, 0.0, 0.0, 0.0, 0.0, 1.6298540339898915E9, 2021-08-24 19:13:53.989
230.0, -1651117.125, -2290214.0625, -3596841.0, -4500000.375, -4500000.375, -3217360.875, -2418202.6875, -3051506.625, -4500000.375, -4500000.375, -4500000.375, -4500000.375, -4500000.375, -4500000.375, -4500000.375, -4500000.375, 0.030000001192092896, 0.9280000329017639, 0.42000001668930054, 192.0, 0.0, 0.0, 0.0, 0.0, 0.0, 0.0, 0.0, 0.0, 0.0, 1.6298540339898984E9, 2021-08-24 19:13:53.989
232.0, -1686995.8125, -2349409.3125, -3593502.75, -4500000.375, -4500000.375, -3221376.375, -2473104.75, -3057225.5625, -4500000.375, -4500000.375, -4500000.375, -4500000.375, -4500000.375, -4500000.375, -4500000.375, -4500000.375, 0.03800000250339508, 0.9220000505447388, 0.4140000343322754, 192.0, 0.5, 24.0, 14.0, 104.0, 6.0, 120.0, 0.0, 0.0, 0.0, 1.629854033989905E9, 2021-08-24 19:13:53.989
234.0, -1653489.75, -2293754.4375, -3596699.25, -4500000.375, -4500000.375, -3216822.75, -2417678.4375, -3051602.625, -4500000.375, -4500000.375, -4500000.375, -4500000.375, -4500000.375, -4500000.375, -4500000.375, -4500000.375, 0.03800000250339508, 0.9220000505447388, 0.4140000343322754, 192.0, 0.0, 0.0, 0.0, 0.0, 0.0, 0.0, 0.0, 0.0, 0.0, 1.629854033989912E9, 2021-08-24 19:13:53.989
236.0, -1684514.25, -2345503.5, -3593348.625, -4500000.375, -4500000.375, -3221584.875, -2472933.0, -3057355.3125, -4500000.375, -4500000.375, -4500000.375, -4500000.375, -4500000.375, -4500000.375, -4500000.375, -4500000.375, 0.03800000250339508, 0.9220000505447388, 0.4140000343322754, 192.0, 0.0, 0.0, 0.0, 0.0, 0.0, 0.0, 0.0, 0.0, 0.0, 1.629854033989922E9, 2021-08-24 19:13:53.989
238.0, -1656407.4375, -2298347.625, -3596740.5, -4500000.375, -4500000.375, -3216401.25, -2418480.0, -3051057.0, -4500000.375, -4500000.375, -4500000.375, -4500000.375, -4500000.375, -4500000.375, -4500000.375, -4500000.375, 0.03800000250339508, 0.9220000505447388, 0.4140000343322754, 192.0, 0.0, 0.0, 0.0, 0.0, 0.0, 0.0, 0.0, 0.0, 0.0, 1.6298540339899287E9, 2021-08-24 19:13:53.989
240.0, -1680722.8125, -2339620.3125, -3593342.25, -4500000.375, -4500000.375, -3221605.875, -2470762.6875, -3056796.9375, -4500000.375, -4500000.375, -4500000.375, -4500000.375, -4500000.375, -4500000.375, -4500000.375, -4500000.375, 0.03800000250339508, 0.9220000505447388, 0.4140000343322754, 192.0, 0.0, 0.0, 0.0, 0.0, 0.0, 0.0, 0.0, 0.0, 0.0, 1.6298540339899356E9, 2021-08-24 19:13:53.989
242.0, -1660540.6875, -2305301.4375, -3596971.875, -4500000.375, -4500000.375, -3216539.625, -2421621.375, -3051544.125, -4500000.375, -4500000.375, -4500000.375, -4500000.375, -4500000.375, -4500000.375, -4500000.375, -4500000.375, 0.036000002175569534, 0.9180000424385071, 0.4180000126361847, 192.0, 0.5, 16.0, 14.0, 88.0, 6.5, 8.0, 0.0, 0.0, 0.0, 1.6298540339899423E9, 2021-08-24 19:13:53.989
244.0, -1676735.8125, -2333400.1875, -3593890.125, -4500000.375, -4500000.375, -3221957.625, -2467513.875, -3056649.9375, -4500000.375, -4500000.375, -4500000.375, -4500000.375, -4500000.375, -4500000.375, -4500000.375, -4500000.375, 0.036000002175569534, 0.9180000424385071, 0.4180000126361847, 192.0, 0.0, 0.0, 0.0, 0.0, 0.0, 0.0, 0.0, 0.0, 0.0, 1.6298540339899492E9, 2021-08-24 19:13:53.989
246.0, -1664606.4375, -2312238.1875, -3596827.125, -4500000.375, -4500000.375, -3216629.625, -2425738.5, -3051999.0, -4500000.375, -4500000.375, -4500000.375, -4500000.375, -4500000.375, -4500000.375, -4500000.375, -4500000.375, 0.036000002175569534, 0.9180000424385071, 0.4180000126361847, 192.0, 0.0, 0.0, 0.0, 0.0, 0.0, 0.0, 0.0, 0.0, 0.0, 1.629854033989956E9, 2021-08-24 19:13:53.989
248.0, -1671736.3125, -2325765.0, -3593973.0, -4500000.375, -4500000.375, -3221610.0, -2462555.625, -3056243.8125, -4500000.375, -4500000.375, -4500000.375, -4500000.375, -4500000.375, -4500000.375, -4500000.375, -4500000.375, 0.036000002175569534, 0.9180000424385071, 0.4180000126361847, 192.0, 0.0, 0.0, 0.0, 0.0, 0.0, 0.0, 0.0, 0.0, 0.0, 1.6298540339899626E9, 2021-08-24 19:13:53.989
250.0, -1670298.5625, -2321157.0, -3596547.0, -4500000.375, -4500000.375, -3216907.5, -2431830.375, -3052155.5625, -4500000.375, -4500000.375, -4500000.375, -4500000.375, -4500000.375, -4500000.375, -4500000.375, -4500000.375, 0.036000002175569534, 0.9180000424385071, 0.4180000126361847, 192.0, 0.0, 0.0, 0.0, 0.0, 0.0, 0.0, 0.0, 0.0, 0.0, 1.6298540339899695E9, 2021-08-24 19:13:53.989
252.0, -1667128.3125, -2318144.4375, -3594562.875, -4500000.375, -4500000.375, -3221563.5, -2456898.375, -3055859.8125, -4500000.375, -4500000.375, -4500000.375, -4500000.375, -4500000.375, -4500000.375, -4500000.375, -4500000.375, 0.04000000283122063, 0.9220000505447388, 0.41200003027915955, 192.0, 0.5, 32.0, 14.0, 104.0, 6.0, 112.0, 0.0, 0.0, 0.0, 1.6298540339899764E9, 2021-08-24 19:13:53.989
254.0, -1675277.25, -2329077.5625, -3596137.875, -4500000.375, -4500000.375, -3217268.25, -2438489.25, -3053082.5625, -4500000.375, -4500000.375, -4500000.375, -4500000.375, -4500000.375, -4500000.375, -4500000.375, -4500000.375, 0.04000000283122063, 0.9220000505447388, 0.41200003027915955, 192.0, 0.0, 0.0, 0.0, 0.0, 0.0, 0.0, 0.0, 0.0, 0.0, 1.629854033989984E9, 2021-08-24 19:13:53.989
0.0, -1663106.0625, -2310479.625, -3594971.625, -4500000.375, -4500000.375, -3221089.875, -2450198.0625, -3055549.125, -4500000.375, -4500000.375, -4500000.375, -4500000.375, -4500000.375, -4500000.375, -4500000.375, -4500000.375, 0.04000000283122063, 0.9220000505447388, 0.41200003027915955, 192.0, 0.0, 0.0, 0.0, 0.0, 0.0, 0.0, 0.0, 0.0, 0.0, 1.6298540339899907E9, 2021-08-24 19:13:53.989
2.0, -1680186.375, -2336744.4375, -3595536.0, -4500000.375, -4500000.375, -3217624.5, -2445524.0625, -3053684.4375, -4500000.375, -4500000.375, -4500000.375, -4500000.375, -4500000.375, -4500000.375, -4500000.375, -4500000.375, 0.04000000283122063, 0.9220000505447388, 0.41200003027915955, 192.0, 0.0, 0.0, 0.0, 0.0, 0.0, 0.0, 0.0, 0.0, 0.0, 1.6298540339899976E9, 2021-08-24 19:13:53.989
4.0, -1658871.9375, -2303584.875, -3595077.0, -4500000.375, -4500000.375, -3220179.375, -2442900.9375, -3054468.1875, -4500000.375, -4500000.375, -4500000.375, -4500000.375, -4500000.375, -4500000.375, -4500000.375, -4500000.375, 0.04000000283122063, 0.9220000505447388, 0.41200003027915955, 192.0, 0.0, 0.0, 0.0, 0.0, 0.0, 0.0, 0.0, 0.0, 0.0, 1.6298540339900045E9, 2021-08-24 19:13:53.990
6.0, -1683484.3125, -2342440.3125, -3595050.75, -4500000.375, -4500000.375, -3218053.875, -2452098.1875, -3054095.4375, -4500000.375, -4500000.375, -4500000.375, -4500000.375, -4500000.375, -4500000.375, -4500000.375, -4500000.375, 0.04400000348687172, 0.9200000166893005, 0.4180000126361847, 192.0, 0.5, 48.0, 14.0, 96.0, 6.5, 8.0, 0.0, 0.0, 0.0, 1.6298540339900115E9, 2021-08-24 19:13:53.990
8.0, -1654864.6875, -2297179.125, -3595580.25, -4500000.375, -4500000.375, -3219463.125, -2435910.0, -3054236.4375, -4500000.375, -4500000.375, -4500000.375, -4500000.375, -4500000.375, -4500000.375, -4500000.375, -4500000.375, 0.04400000348687172, 0.9200000166893005, 0.4180000126361847, 192.0, 0.0, 0.0, 0.0, 0.0, 0.0, 0.0, 0.0, 0.0, 0.0, 1.6298540339900181E9, 2021-08-24 19:13:53.990
10.0, -1686039.375, -2347206.75, -3594534.375, -4500000.375, -4500000.375, -3218509.875, -2458717.875, -3054930.5625, -4500000.375, -4500000.375, -4500000.375, -4500000.375, -4500000.375, -4500000.375, -4500000.375, -4500000.375, 0.04400000348687172, 0.9200000166893005, 0.4180000126361847, 192.0, 0.0, 0.0, 0.0, 0.0, 0.0, 0.0, 0.0, 0.0, 0.0, 1.6298540339900253E9, 2021-08-24 19:13:53.990
12.0, -1652459.8125, -2292980.4375, -3595905.0, -4500000.375, -4500000.375, -3218677.875, -2429674.5, -3053749.875, -4500000.375, -4500000.375, -4500000.375, -4500000.375, -4500000.375, -4500000.375, -4500000.375, -4500000.375, 0.04400000348687172, 0.9200000166893005, 0.4180000126361847, 192.0, 0.0, 0.0, 0.0, 0.0, 0.0, 0.0, 0.0, 0.0, 0.0, 1.6298540339900317E9, 2021-08-24 19:13:53.990
14.0, -1687970.625, -2350605.5625, -3594169.875, -4500000.375, -4500000.375, -3219273.375, -2464541.0625, -3055960.125, -4500000.375, -4500000.375, -4500000.375, -4500000.375, -4500000.375, -4500000.375, -4500000.375, -4500000.375, 0.04500000365078449, 0.9220000207424164, 0.4180000126361847, 192.0, 0.5, 56.0, 14.0, 112.0, 6.5, 8.0, 0.0, 0.0, 0.0, 1.6298540339900405E9, 2021-08-24 19:13:53.990
16.0, -1650969.0, -2290309.5, -3595995.375, -4500000.375, -4500000.375, -3217795.5, -2424424.875, -3053181.75, -4500000.375, -4500000.375, -4500000.375, -4500000.375, -4500000.375, -4500000.375, -4500000.375, -4500000.375, 0.04500000365078449, 0.9220000207424164, 0.4180000126361847, 192.0, 0.0, 0.0, 0.0, 0.0, 0.0, 0.0, 0.0, 0.0, 0.0, 1.6298540339900477E9, 2021-08-24 19:13:53.990
18.0, -1689159.9375, -2352293.8125, -3593186.25, -4500000.375, -4500000.375, -3219453.0, -2469119.0625, -3056603.25, -4500000.375, -4500000.375, -4500000.375, -4500000.375, -4500000.375, -4500000.375, -4500000.375, -4500000.375, 0.04500000365078449, 0.9220000207424164, 0.4180000126361847, 192.0, 0.0, 0.0, 0.0, 0.0, 0.0, 0.0, 0.0, 0.0, 0.0, 1.6298540339900544E9, 2021-08-24 19:13:53.990
20.0, -1651051.125, -2290080.375, -3596071.875, -4500000.375, -4500000.375, -3216956.625, -2420545.6875, -3051952.875, -4500000.375, -4500000.375, -4500000.375, -4500000.375, -4500000.375, -4500000.375, -4500000.375, -4500000.375, 0.04500000365078449, 0.9220000207424164, 0.4180000126361847, 192.0, 0.0, 0.0, 0.0, 0.0, 0.0, 0.0, 0.0, 0.0, 0.0, 1.6298540339900613E9, 2021-08-24 19:13:53.990
22.0, -1688406.1875, -2351642.0625, -3593181.0, -4500000.375, -4500000.375, -3220050.75, -2472185.8125, -3056598.375, -4500000.375, -4500000.375, -4500000.375, -4500000.375, -4500000.375, -4500000.375, -4500000.375, -4500000.375, 0.04500000365078449, 0.9220000207424164, 0.4180000126361847, 192.0, 0.0, 0.0, 0.0, 0.0, 0.0, 0.0, 0.0, 0.0, 0.0, 1.629854033990068E9, 2021-08-24 19:13:53.990
24.0, -1651947.9375, -2291595.9375, -3596721.375, -4500000.375, -4500000.375, -3216387.75, -2418413.4375, -3051996.75, -4500000.375, -4500000.375, -4500000.375, -4500000.375, -4500000.375, -4500000.375, -4500000.375, -4500000.375, 0.04550000373274088, 0.9280000180006027, 0.41700001060962677, 192.0, 0.5, 56.0, 14.5, 24.0, 6.5, 0.0, 0.0, 0.0, 0.0, 1.6298540339900749E9, 2021-08-24 19:13:53.990
26.0, -1686632.25, -2349269.8125, -3593212.5, -4500000.375, -4500000.375, -3220426.125, -2473729.6875, -3057057.5625, -4500000.375, -4500000.375, -4500000.375, -4500000.375, -4500000.375, -4500000.375, -4500000.375, -4500000.375, 0.04550000373274088, 0.9280000180006027, 0.41700001060962677, 192.0, 0.0, 0.0, 0.0, 0.0, 0.0, 0.0, 0.0, 0.0, 0.0, 1.6298540339900813E9, 2021-08-24 19:13:53.990
28.0, -1654538.4375, -2295537.1875, -3596782.5, -4500000.375, -4500000.375, -3216020.25, -2418480.0, -3051935.625, -4500000.375, -4500000.375, -4500000.375, -4500000.375, -4500000.375, -4500000.375, -4500000.375, -4500000.375, 0.04550000373274088, 0.9280000180006027, 0.41700001060962677, 192.0, 0.0, 0.0, 0.0, 0.0, 0.0, 0.0, 0.0, 0.0, 0.0, 1.6298540339900882E9, 2021-08-24 19:13:53.990
30.0, -1683960.75, -2344686.375, -3593316.375, -4500000.375, -4500000.375, -3220912.875, -2473119.75, -3057519.5625, -4500000.375, -4500000.375, -4500000.375, -4500000.375, -4500000.375, -4500000.375, -4500000.375, -4500000.375, 0.04550000373274088, 0.9280000180006027, 0.41700001060962677, 192.0, 0.0, 0.0, 0.0, 0.0, 0.0, 0.0, 0.0, 0.0, 0.0, 1.629854033990095E9, 2021-08-24 19:13:53.990
32.0, -1657758.75, -2300459.0625, -3596616.375, -4500000.375, -4500000.375, -3215733.0, -2419813.5, -3052134.1875, -4500000.375, -4500000.375, -4500000.375, -4500000.375, -4500000.375, -4500000.375, -4500000.375, -4500000.375, 0.04550000373274088, 0.9280000180006027, 0.41700001060962677, 192.0, 0.0, 0.0, 0.0, 0.0, 0.0, 0.0, 0.0, 0.0, 0.0, 1.6298540339901016E9, 2021-08-24 19:13:53.990
34.0, -1680272.625, -2338801.6875, -3593239.875, -4500000.375, -4500000.375, -3220908.375, -2470850.0625, -3057664.3125, -4500000.375, -4500000.375, -4500000.375, -4500000.375, -4500000.375, -4500000.375, -4500000.375, -4500000.375, 0.046750002074986696, 0.932000033557415, 0.41750001162290573, 192.0, 0.5, 64.0, 14.5, 32.0, 6.5, 8.0, 0.0, 0.0, 0.0, 1.6298540339901085E9, 2021-08-24 19:13:53.990
36.0, -1661685.0, -2306890.875, -3596442.375, -4500000.375, -4500000.375, -3215521.125, -2422689.9375, -3051935.0625, -4500000.375, -4500000.375, -4500000.375, -4500000.375, -4500000.375, -4500000.375, -4500000.375, -4500000.375, 0.046750002074986696, 0.932000033557415, 0.41750001162290573, 192.0, 0.0, 0.0, 0.0, 0.0, 0.0, 0.0, 0.0, 0.0, 0.0, 1.6298540339901152E9, 2021-08-24 19:13:53.990
38.0, -1675813.6875, -2331675.5625, -3593502.0, -4500000.375, -4500000.375, -3220934.625, -2466978.5625, -3057447.0, -4500000.375, -4500000.375, -4500000.375, -4500000.375, -4500000.375, -4500000.375, -4500000.375, -4500000.375, 0.046750002074986696, 0.932000033557415, 0.41750001162290573, 192.0, 0.0, 0.0, 0.0, 0.0, 0.0, 0.0, 0.0, 0.0, 0.0, 1.629854033990122E9, 2021-08-24 19:13:53.990
40.0, -1666406.625, -2314422.0, -3596547.375, -4500000.375, -4500000.375, -3216051.0, -2427416.0625, -3052663.125, -4500000.375, -4500000.375, -4500000.375, -4500000.375, -4500000.375, -4500000.375, -4500000.375, -4500000.375, 0.046750002074986696, 0.932000033557415, 0.41750001162290573, 192.0, 0.0, 0.0, 0.0, 0.0, 0.0, 0.0, 0.0, 0.0, 0.0, 1.6298540339901288E9, 2021-08-24 19:13:53.990
42.0, -1671332.25, -2324425.125, -3593683.125, -4500000.375, -4500000.375, -3220773.375, -2461984.875, -3056913.9375, -4500000.375, -4500000.375, -4500000.375, -4500000.375, -4500000.375, -4500000.375, -4500000.375, -4500000.375, 0.046750002074986696, 0.932000033557415, 0.41750001162290573, 192.0, 0.0, 0.0, 0.0, 0.0, 0.0, 0.0, 0.0, 0.0, 0.0, 1.6298540339901357E9, 2021-08-24 19:13:53.990
44.0, -1671495.375, -2322671.4375, -3596000.25, -4500000.375, -4500000.375, -3216067.5, -2433414.9375, -3053108.4375, -4500000.375, -4500000.375, -4500000.375, -4500000.375, -4500000.375, -4500000.375, -4500000.375, -4500000.375, 0.050375001737847924, 0.9320000372827053, 0.41975001618266106, 192.0, 0.5, 88.0, 14.5, 16.0, 6.5, 24.0, 0.0, 0.0, 0.0, 1.6298540339901423E9, 2021-08-24 19:13:53.990
46.0, -1666559.0625, -2316523.875, -3594014.625, -4500000.375, -4500000.375, -3220440.0, -2455897.3125, -3055984.125, -4500000.375, -4500000.375, -4500000.375, -4500000.375, -4500000.375, -4500000.375, -4500000.375, -4500000.375, 0.050375001737847924, 0.9320000372827053, 0.41975001618266106, 192.0, 0.0, 0.0, 0.0, 0.0, 0.0, 0.0, 0.0, 0.0, 0.0, 1.6298540339901493E9, 2021-08-24 19:13:53.990
48.0, -1676313.75, -2330270.0625, -3595498.875, -4500000.375, -4500000.375, -3216421.125, -2440041.75, -3053490.75, -4500000.375, -4500000.375, -4500000.375, -4500000.375, -4500000.375, -4500000.375, -4500000.375, -4500000.375, 0.050375001737847924, 0.9320000372827053, 0.41975001618266106, 192.0, 0.0, 0.0, 0.0, 0.0, 0.0, 0.0, 0.0, 0.0, 0.0, 1.6298540339901576E9, 2021-08-24 19:13:53.990
50.0, -1662004.6875, -2308696.5, -3594639.375, -4500000.375, -4500000.375, -3220179.375, -2448951.0, -3055845.1875, -4500000.375, -4500000.375, -4500000.375, -4500000.375, -4500000.375, -4500000.375, -4500000.375, -4500000.375, 0.050375001737847924, 0.9320000372827053, 0.41975001618266106, 192.0, 0.0, 0.0, 0.0, 0.0, 0.0, 0.0, 0.0, 0.0, 0.0, 1.6298540339901645E9, 2021-08-24 19:13:53.990
52.0, -1680720.5625, -2337398.4375, -3595191.375, -4500000.375, -4500000.375, -3217173.75, -2447133.375, -3054455.4375, -4500000.375, -4500000.375, -4500000.375, -4500000.375, -4500000.375, -4500000.375, -4500000.375, -4500000.375, 0.050375001737847924, 0.9320000372827053, 0.41975001618266106, 192.0, 0.0, 0.0, 0.0, 0.0, 0.0, 0.0, 0.0, 0.0, 0.0, 1.629854033990171E9, 2021-08-24 19:13:53.990
54.0, -1658081.0625, -2301869.8125, -3594900.0, -4500000.375, -4500000.375, -3219723.375, -2442146.0625, -3055026.75, -4500000.375, -4500000.375, -4500000.375, -4500000.375, -4500000.375, -4500000.375, -4500000.375, -4500000.375, 0.04800000041723251, 0.9220000505447388, 0.4180000126361847, 192.0, 0.5, 64.0, 14.0, 104.0, 6.5, 8.0, 0.0, 0.0, 0.0, 1.6298540339901779E9, 2021-08-24 19:13:53.990
56.0, -1684359.75, -2343449.4375, -3594679.5, -4500000.375, -4500000.375, -3217944.75, -2454275.0625, -3054925.3125, -4500000.375, -4500000.375, -4500000.375, -4500000.375, -4500000.375, -4500000.375, -4500000.375, -4500000.375, 0.04800000041723251, 0.9220000505447388, 0.4180000126361847, 192.0, 0.0, 0.0, 0.0, 0.0, 0.0, 0.0, 0.0, 0.0, 0.0, 1.6298540339901845E9, 2021-08-24 19:13:53.990
58.0, -1654679.0625, -2296250.0625, -3595605.0, -4500000.375, -4500000.375, -3219474.0, -2435330.0625, -3054666.75, -4500000.375, -4500000.375, -4500000.375, -4500000.375, -4500000.375, -4500000.375, -4500000.375, -4500000.375, 0.04800000041723251, 0.9220000505447388, 0.4180000126361847, 192.0, 0.0, 0.0, 0.0, 0.0, 0.0, 0.0, 0.0, 0.0, 0.0, 1.6298540339901912E9, 2021-08-24 19:13:53.990
60.0, -1687418.0625, -2348417.4375, -3594184.5, -4500000.375, -4500000.375, -3218880.75, -2461149.5625, -3056511.0, -4500000.375, -4500000.375, -4500000.375, -4500000.375, -4500000.375, -4500000.375, -4500000.375, -4500000.375, 0.04800000041723251, 0.9220000505447388, 0.4180000126361847, 192.0, 0.0, 0.0, 0.0, 0.0, 0.0, 0.0, 0.0, 0.0, 0.0, 1.629854033990198E9, 2021-08-24 19:13:53.990
62.0, -1652881.3125, -2292586.125, -3595981.125, -4500000.375, -4500000.375, -3219045.0, -2429519.4375, -3054077.25, -4500000.375, -4500000.375, -4500000.375, -4500000.375, -4500000.375, -4500000.375, -4500000.375, -4500000.375, 0.04800000041723251, 0.9220000505447388, 0.4180000126361847, 192.0, 0.0, 0.0, 0.0, 0.0, 0.0, 0.0, 0.0, 0.0, 0.0, 1.6298540339902048E9, 2021-08-24 19:13:53.990
64.0, -1689343.3125, -2351562.5625, -3594052.125, -4500000.375, -4500000.375, -3219950.25, -2467121.8125, -3057021.75, -4500000.375, -4500000.375, -4500000.375, -4500000.375, -4500000.375, -4500000.375, -4500000.375, -4500000.375, 0.04000000283122063, 0.9120000600814819, 0.42000001668930054, 192.0, 0.5, 32.0, 14.0, 64.0, 6.5, 16.0, 0.0, 0.0, 0.0, 1.6298540339902115E9, 2021-08-24 19:13:53.990
66.0, -1651689.375, -2290434.5625, -3596564.625, -4500000.375, -4500000.375, -3218621.625, -2424778.875, -3054399.0, -4500000.375, -4500000.375, -4500000.375, -4500000.375, -4500000.375, -4500000.375, -4500000.375, -4500000.375, 0.04000000283122063, 0.9120000600814819, 0.42000001668930054, 192.0, 0.0, 0.0, 0.0, 0.0, 0.0, 0.0, 0.0, 0.0, 0.0, 1.6298540339902184E9, 2021-08-24 19:13:53.990
0.0, -862492.3125, -1189734.1875, -1803731.625, -2250000.1875, -2250000.1875, -1616642.0625, -1242904.6875, -1544418.1875, -2250000.1875, -2250000.1875, -2250000.1875, -2250000.1875, -2250000.1875, -2250000.1875, -2250000.1875, -2250000.1875, 0.02800000086426735, 0.9500000476837158, 0.320000022649765, 192.0, 0.0, 112.0, 14.5, 88.0, 5.0, 0.0, 0.0, 0.0, 0.0, 1.629854034575694E9, 2021-08-24 19:13:54.575
2.0, -1691353.875, -2326131.5625, -3608696.25, -4500000.375, -4500000.375, -3233618.25, -2457641.8125, -3087472.3125, -4500000.375, -4500000.375, -4500000.375, -4500000.375, -4500000.375, -4500000.375, -4500000.375, -4500000.375, 0.02800000086426735, 0.9500000476837158, 0.320000022649765, 192.0, 0.0, 0.0, 0.0, 0.0, 0.0, 0.0, 0.0, 0.0, 0.0, 1.6298540345757227E9, 2021-08-24 19:13:54.575
4.0, -1727499.9375, -2385426.0, -3606141.375, -4500000.375, -4500000.375, -3236218.875, -2504281.125, -3091584.1875, -4500000.375, -4500000.375, -4500000.375, -4500000.375, -4500000.375, -4500000.375, -4500000.375, -4500000.375, 0.02800000086426735, 0.9500000476837158, 0.320000022649765, 192.0, 0.0, 0.0, 0.0, 0.0, 0.0, 0.0, 0.0, 0.0, 0.0, 1.6298540345757415E9, 2021-08-24 19:13:54.575
6.0, -1691721.9375, -2326541.25, -3608902.875, -4500000.375, -4500000.375, -3233123.625, -2454952.6875, -3087006.1875, -4500000.375, -4500000.375, -4500000.375, -4500000.375, -4500000.375, -4500000.375, -4500000.375, -4500000.375, 0.022000000812113285, 0.9610000550746918, 0.29200001060962677, 192.0, 0.0, 64.0, 15.0, 48.0, 4.0, 32.0, 0.0, 0.0, 0.0, 1.629854034575796E9, 2021-08-24 19:13:54.575
8.0, -1725758.625, -2383482.5625, -3605687.625, -4500000.375, -4500000.375, -3236596.5, -2505658.6875, -3091368.375, -4500000.375, -4500000.375, -4500000.375, -4500000.375, -4500000.375, -4500000.375, -4500000.375, -4500000.375, 0.022000000812113285, 0.9610000550746918, 0.29200001060962677, 192.0, 0.0, 0.0, 0.0, 0.0, 0.0, 0.0, 0.0, 0.0, 0.0, 1.629854034575852E9, 2021-08-24 19:13:54.575
10.0, -1693418.25, -2329223.0625, -3608860.5, -4500000.375, -4500000.375, -3232800.75, -2454281.0625, -3086600.625, -4500000.375, -4500000.375, -4500000.375, -4500000.375, -4500000.375, -4500000.375, -4500000.375, -4500000.375, 0.022000000812113285, 0.9610000550746918, 0.29200001060962677, 192.0, 0.0, 0.0, 0.0, 0.0, 0.0, 0.0, 0.0, 0.0, 0.0, 1.6298540345758774E9, 2021-08-24 19:13:54.575
12.0, -1723982.4375, -2380687.125, -3606065.25, -4500000.375, -4500000.375, -3237281.625, -2506021.3125, -3091956.375, -4500000.375, -4500000.375, -4500000.375, -4500000.375, -4500000.375, -4500000.375, -4500000.375, -4500000.375, 0.022000000812113285, 0.9610000550746918, 0.29200001060962677, 192.0, 0.0, 0.0, 0.0, 0.0, 0.0, 0.0, 0.0, 0.0, 0.0, 1.6298540345758984E9, 2021-08-24 19:13:54.575
14.0, -1696226.4375, -2333535.9375, -3609228.375, -4500000.375, -4500000.375, -3232790.625, -2455221.9375, -3086868.1875, -4500000.375, -4500000.375, -4500000.375, -4500000.375, -4500000.375, -4500000.375, -4500000.375, -4500000.375, 0.022000000812113285, 0.9610000550746918, 0.29200001060962677, 192.0, 0.0, 0.0, 0.0, 0.0, 0.0, 0.0, 0.0, 0.0, 0.0, 1.6298540345759068E9, 2021-08-24 19:13:54.575
16.0, -1720457.0625, -2375461.6875, -3605854.125, -4500000.375, -4500000.375, -3237145.5, -2504172.1875, -3091901.0625, -4500000.375, -4500000.375, -4500000.375, -4500000.375, -4500000.375, -4500000.375, -4500000.375, -4500000.375, 0.017000000458210707, 0.9725000411272049, 0.26500000804662704, 192.0, 0.0, 48.0, 15.0, 96.0, 3.5, 56.0, 0.0, 0.0, 0.0, 1.629854034575935E9, 2021-08-24 19:13:54.575
18.0, -1699860.75, -2338927.6875, -3609024.75, -4500000.375, -4500000.375, -3232549.875, -2457839.25, -3087031.3125, -4500000.375, -4500000.375, -4500000.375, -4500000.375, -4500000.375, -4500000.375, -4500000.375, -4500000.375, 0.017000000458210707, 0.9725000411272049, 0.26500000804662704, 192.0, 0.0, 0.0, 0.0, 0.0, 0.0, 0.0, 0.0, 0.0, 0.0, 1.6298540345759413E9, 2021-08-24 19:13:54.575
20.0, -1716812.4375, -2369375.625, -3606047.25, -4500000.375, -4500000.375, -3237328.5, -2501273.25, -3091926.375, -4500000.375, -4500000.375, -4500000.375, -4500000.375, -4500000.375, -4500000.375, -4500000.375, -4500000.375, 0.017000000458210707, 0.9725000411272049, 0.26500000804662704, 192.0, 0.0, 0.0, 0.0, 0.0, 0.0, 0.0, 0.0, 0.0, 0.0, 1.629854034575948E9, 2021-08-24 19:13:54.575
22.0, -1703808.5625, -2345425.6875, -3609075.75, -4500000.375, -4500000.375, -3232803.0, -2461783.125, -3087375.75, -4500000.375, -4500000.375, -4500000.375, -4500000.375, -4500000.375, -4500000.375, -4500000.375, -4500000.375, 0.017000000458210707, 0.9725000411272049, 0.26500000804662704, 192.0, 0.0, 0.0, 0.0, 0.0, 0.0, 0.0, 0.0, 0.0, 0.0, 1.6298540345759547E9, 2021-08-24 19:13:54.575
24.0, -1711818.1875, -2361524.25, -3606474.375, -4500000.375, -4500000.375, -3237267.375, -2496773.0625, -3091541.25, -4500000.375, -4500000.375, -4500000.375, -4500000.375, -4500000.375, -4500000.375, -4500000.375, -4500000.375, 0.017000000458210707, 0.9725000411272049, 0.26500000804662704, 192.0, 0.0, 0.0, 0.0, 0.0, 0.0, 0.0, 0.0, 0.0, 0.0, 1.629854034575961E9, 2021-08-24 19:13:54.575
26.0, -1708254.0, -2352707.8125, -3608608.875, -4500000.375, -4500000.375, -3232777.875, -2467150.3125, -3087415.875, -4500000.375, -4500000.375, -4500000.375, -4500000.375, -4500000.375, -4500000.375, -4500000.375, -4500000.375, 0.016500000609084964, 0.9812500551342964, 0.2475000061094761, 192.0, 0.0, 64.0, 15.0, 120.0, 3.5, 24.0, 0.0, 0.0, 0.0, 1.6298540345759676E9, 2021-08-24 19:13:54.575
28.0, -1707368.8125, -2354435.25, -3606909.0, -4500000.375, -4500000.375, -3237291.75, -2491704.1875, -3091044.0, -4500000.375, -4500000.375, -4500000.375, -4500000.375, -4500000.375, -4500000.375, -4500000.375, -4500000.375, 0.016500000609084964, 0.9812500551342964, 0.2475000061094761, 192.0, 0.0, 0.0, 0.0, 0.0, 0.0, 0.0, 0.0, 0.0, 0.0, 1.6298540345759745E9, 2021-08-24 19:13:54.575
30.0, -1712875.5, -2360391.375, -3608592.75, -4500000.375, -4500000.375, -3233474.625, -2473480.875, -3088261.3125, -4500000.375, -4500000.375, -4500000.375, -4500000.375, -4500000.375, -4500000.375, -4500000.375, -4500000.375, 0.016500000609084964, 0.9812500551342964, 0.2475000061094761, 192.0, 0.0, 0.0, 0.0, 0.0, 0.0, 0.0, 0.0, 0.0, 0.0, 1.629854034575981E9, 2021-08-24 19:13:54.575
32.0, -1702884.1875, -2346734.0625, -3607233.0, -4500000.375, -4500000.375, -3236935.875, -2485385.4375, -3090402.9375, -4500000.375, -4500000.375, -4500000.375, -4500000.375, -4500000.375, -4500000.375, -4500000.375, -4500000.375, 0.016500000609084964, 0.9812500551342964, 0.2475000061094761, 192.0, 0.0, 0.0, 0.0, 0.0, 0.0, 0.0, 0.0, 0.0, 0.0, 1.6298540345759876E9, 2021-08-24 19:13:54.575
34.0, -1717336.5, -2367550.125, -3608104.125, -4500000.375, -4500000.375, -3234025.125, -2479855.875, -3088052.625, -4500000.375, -4500000.375, -4500000.375, -4500000.375, -4500000.375, -4500000.375, -4500000.375, -4500000.375, 0.016500000609084964, 0.9812500551342964, 0.2475000061094761, 192.0, 0.0, 0.0, 0.0, 0.0, 0.0, 0.0, 0.0, 0.0, 0.0, 1.629854034575994E9, 2021-08-24 19:13:54.575
36.0, -1698686.625, -2339672.8125, -3607592.25, -4500000.375, -4500000.375, -3236667.0, -2478711.5625, -3089541.9375, -4500000.375, -4500000.375, -4500000.375, -4500000.375, -4500000.375, -4500000.375, -4500000.375, -4500000.375, 0.01525000052060932, 0.9826250411570072, 0.2377500105649233, 192.0, 0.0, 56.0, 15.0, 96.0, 3.5, 16.0, 0.0, 0.0, 0.0, 1.6298540345760007E9, 2021-08-24 19:13:54.576
38.0, -1721748.75, -2374677.9375, -3607360.125, -4500000.375, -4500000.375, -3234568.875, -2486605.875, -3088940.4375, -4500000.375, -4500000.375, -4500000.375, -4500000.375, -4500000.375, -4500000.375, -4500000.375, -4500000.375, 0.01525000052060932, 0.9826250411570072, 0.2377500105649233, 192.0, 0.0, 0.0, 0.0, 0.0, 0.0, 0.0, 0.0, 0.0, 0.0, 1.629854034576008E9, 2021-08-24 19:13:54.576
40.0, -1695429.375, -2333771.4375, -3607951.125, -4500000.375, -4500000.375, -3236219.625, -2472093.5625, -3089053.6875, -4500000.375, -4500000.375, -4500000.375, -4500000.375, -4500000.375, -4500000.375, -4500000.375, -4500000.375, 0.01525000052060932, 0.9826250411570072, 0.2377500105649233, 192.0, 0.0, 0.0, 0.0, 0.0, 0.0, 0.0, 0.0, 0.0, 0.0, 1.6298540345760145E9, 2021-08-24 19:13:54.576
42.0, -1724273.8125, -2379131.4375, -3607159.5, -4500000.375, -4500000.375, -3235477.5, -2492841.5625, -3089938.875, -4500000.375, -4500000.375, -4500000.375, -4500000.375, -4500000.375, -4500000.375, -4500000.375, -4500000.375, 0.01525000052060932, 0.9826250411570072, 0.2377500105649233, 192.0, 0.0, 0.0, 0.0, 0.0, 0.0, 0.0, 0.0, 0.0, 0.0, 1.6298540345760212E9, 2021-08-24 19:13:54.576
44.0, -1692588.375, -2328650.625, -3608294.625, -4500000.375, -4500000.375, -3235600.125, -2466384.1875, -3088509.1875, -4500000.375, -4500000.375, -4500000.375, -4500000.375, -4500000.375, -4500000.375, -4500000.375, -4500000.375, 0.01525000052060932, 0.9826250411570072, 0.2377500105649233, 192.0, 0.0, 0.0, 0.0, 0.0, 0.0, 0.0, 0.0, 0.0, 0.0, 1.629854034576028E9, 2021-08-24 19:13:54.576
46.0, -1726492.5, -2382982.5, -3606841.875, -4500000.375, -4500000.375, -3236160.0, -2498534.8125, -3090434.4375, -4500000.375, -4500000.375, -4500000.375, -4500000.375, -4500000.375, -4500000.375, -4500000.375, -4500000.375, 0.012625000614207238, 0.9833125341683626, 0.22987501416355371, 192.0, 0.0, 40.0, 15.0, 96.0, 3.0, 120.0, 0.0, 0.0, 0.0, 1.6298540345760343E9, 2021-08-24 19:13:54.576
48.0, -1691195.0625, -2325765.5625, -3608782.875, -4500000.375, -4500000.375, -3235103.25, -2461363.6875, -3087852.5625, -4500000.375, -4500000.375, -4500000.375, -4500000.375, -4500000.375, -4500000.375, -4500000.375, -4500000.375, 0.012625000614207238, 0.9833125341683626, 0.22987501416355371, 192.0, 0.0, 0.0, 0.0, 0.0, 0.0, 0.0, 0.0, 0.0, 0.0, 1.6298540345760412E9, 2021-08-24 19:13:54.576
50.0, -1727040.75, -2384244.1875, -3606696.0, -4500000.375, -4500000.375, -3237004.875, -2502410.0625, -3090998.25, -4500000.375, -4500000.375, -4500000.375, -4500000.375, -4500000.375, -4500000.375, -4500000.375, -4500000.375, 0.012625000614207238, 0.9833125341683626, 0.22987501416355371, 192.0, 0.0, 0.0, 0.0, 0.0, 0.0, 0.0, 0.0, 0.0, 0.0, 1.62985403457605E9, 2021-08-24 19:13:54.576
52.0, -1690748.8125, -2324722.875, -3609517.125, -4500000.375, -4500000.375, -3235100.625, -2457879.9375, -3087735.1875, -4500000.375, -4500000.375, -4500000.375, -4500000.375, -4500000.375, -4500000.375, -4500000.375, -4500000.375, 0.012625000614207238, 0.9833125341683626, 0.22987501416355371, 192.0, 0.0, 0.0, 0.0, 0.0, 0.0, 0.0, 0.0, 0.0, 0.0, 1.6298540345760753E9, 2021-08-24 19:13:54.576
54.0, -1726887.375, -2384340.1875, -3606421.125, -4500000.375, -4500000.375, -3237603.0, -2505430.6875, -3091645.875, -4500000.375, -4500000.375, -4500000.375, -4500000.375, -4500000.375, -4500000.375, -4500000.375, -4500000.375, 0.012625000614207238, 0.9833125341683626, 0.22987501416355371, 192.0, 0.0, 0.0, 0.0, 0.0, 0.0, 0.0, 0.0, 0.0, 0.0, 1.629854034576082E9, 2021-08-24 19:13:54.576
56.0, -1692019.125, -2326251.5625, -3609492.0, -4500000.375, -4500000.375, -3234618.375, -2456036.8125, -3087111.1875, -4500000.375, -4500000.375, -4500000.375, -4500000.375, -4500000.375, -4500000.375, -4500000.375, -4500000.375, 0.006000000052154064, 0.9820000529289246, 0.22200001776218414, 192.0, 0.0, 24.0, 15.0, 88.0, 3.0, 120.0, 0.0, 0.0, 0.0, 1.629854034576089E9, 2021-08-24 19:13:54.576
58.0, -1725067.125, -2381626.875, -3606253.875, -4500000.375, -4500000.375, -3238009.125, -2506064.8125, -3091707.9375, -4500000.375, -4500000.375, -4500000.375, -4500000.375, -4500000.375, -4500000.375, -4500000.375, -4500000.375, 0.006000000052154064, 0.9820000529289246, 0.22200001776218414, 192.0, 0.0, 0.0, 0.0, 0.0, 0.0, 0.0, 0.0, 0.0, 0.0, 1.6298540345760956E9, 2021-08-24 19:13:54.576
60.0, -1694219.625, -2329115.625, -3609371.625, -4500000.375, -4500000.375, -3234051.375, -2455625.8125, -3087029.25, -4500000.375, -4500000.375, -4500000.375, -4500000.375, -4500000.375, -4500000.375, -4500000.375, -4500000.375, 0.006000000052154064, 0.9820000529289246, 0.22200001776218414, 192.0, 0.0, 0.0, 0.0, 0.0, 0.0, 0.0, 0.0, 0.0, 0.0, 1.6298540345761025E9, 2021-08-24 19:13:54.576
62.0, -1722762.0, -2378015.0625, -3606374.25, -4500000.375, -4500000.375, -3238694.25, -2505960.75, -3092218.6875, -4500000.375, -4500000.375, -4500000.375, -4500000.375, -4500000.375, -4500000.375, -4500000.375, -4500000.375, 0.006000000052154064, 0.9820000529289246, 0.22200001776218414, 192.0, 0.0, 0.0, 0.0, 0.0, 0.0, 0.0, 0.0, 0.0, 0.0, 1.629854034576122E9, 2021-08-24 19:13:54.576
64.0, -1697362.125, -2333968.3125, -3609423.75, -4500000.375, -4500000.375, -3234182.25, -2457398.8125, -3087304.3125, -4500000.375, -4500000.375, -4500000.375, -4500000.375, -4500000.375, -4500000.375, -4500000.375, -4500000.375, 0.006000000052154064, 0.9820000529289246, 0.22200001776218414, 192.0, 0.0, 0.0, 0.0, 0.0, 0.0, 0.0, 0.0, 0.0, 0.0, 1.6298540345761476E9, 2021-08-24 19:13:54.576
66.0, -1719129.375, -2371956.9375, -3605943.375, -4500000.375, -4500000.375, -3238496.625, -2503253.25, -3091981.125, -4500000.375, -4500000.375, -4500000.375, -4500000.375, -4500000.375, -4500000.375, -4500000.375, -4500000.375, 0.004000000189989805, 0.984000027179718, 0.22800001502037048, 192.0, 0.0, 16.0, 15.0, 96.0, 3.5, 16.0, 0.0, 0.0, 0.0, 1.6298540345761545E9, 2021-08-24 19:13:54.576
68.0, -1701191.25, -2339754.375, -3609310.5, -4500000.375, -4500000.375, -3234213.375, -2460255.9375, -3087655.6875, -4500000.375, -4500000.375, -4500000.375, -4500000.375, -4500000.375, -4500000.375, -4500000.375, -4500000.375, 0.004000000189989805, 0.984000027179718, 0.22800001502037048, 192.0, 0.0, 0.0, 0.0, 0.0, 0.0, 0.0, 0.0, 0.0, 0.0, 1.6298540345761611E9, 2021-08-24 19:13:54.576
70.0, -1715195.0625, -2365672.6875, -3606555.0, -4500000.375, -4500000.375, -3238901.25, -2500352.25, -3092027.8125, -4500000.375, -4500000.375, -4500000.375, -4500000.375, -4500000.375, -4500000.375, -4500000.375, -4500000.375, 0.004000000189989805, 0.984000027179718, 0.22800001502037048, 192.0, 0.0, 0.0, 0.0, 0.0, 0.0, 0.0, 0.0, 0.0, 0.0, 1.6298540345761807E9, 2021-08-24 19:13:54.576
72.0, -1706083.5, -2347797.75, -3609161.625, -4500000.375, -4500000.375, -3234342.375, -2465108.0625, -3087825.75, -4500000.375, -4500000.375, -4500000.375, -4500000.375, -4500000.375, -4500000.375, -4500000.375, -4500000.375, 0.004000000189989805, 0.984000027179718, 0.22800001502037048, 192.0, 0.0, 0.0, 0.0, 0.0, 0.0, 0.0, 0.0, 0.0, 0.0, 1.6298540345761876E9, 2021-08-24 19:13:54.576
74.0, -1710815.0625, -2358552.9375, -3606809.625, -4500000.375, -4500000.375, -3238662.375, -2495170.125, -3091986.375, -4500000.375, -4500000.375, -4500000.375, -4500000.375, -4500000.375, -4500000.375, -4500000.375, -4500000.375, 0.004000000189989805, 0.984000027179718, 0.22800001502037048, 192.0, 0.0, 0.0, 0.0, 0.0, 0.0, 0.0, 0.0, 0.0, 0.0, 1.629854034576194E9, 2021-08-24 19:13:54.576
76.0, -1710697.5, -2355774.1875, -3608712.375, -4500000.375, -4500000.375, -3234439.5, -2470317.9375, -3088152.5625, -4500000.375, -4500000.375, -4500000.375, -4500000.375, -4500000.375, -4500000.375, -4500000.375, -4500000.375, 0.004000000189989805, 0.9900000691413879, 0.22600001096725464, 192.0, 0.0, 16.0, 15.0, 120.0, 3.5, 8.0, 0.0, 0.0, 0.0, 1.6298540345762196E9, 2021-08-24 19:13:54.576
78.0, -1706120.0625, -2351240.625, -3606971.25, -4500000.375, -4500000.375, -3238239.375, -2488972.125, -3090985.5, -4500000.375, -4500000.375, -4500000.375, -4500000.375, -4500000.375, -4500000.375, -4500000.375, -4500000.375, 0.004000000189989805, 0.9900000691413879, 0.22600001096725464, 192.0, 0.0, 0.0, 0.0, 0.0, 0.0, 0.0, 0.0, 0.0, 0.0, 1.6298540345762262E9, 2021-08-24 19:13:54.576
80.0, -1716063.5625, -2364836.8125, -3608447.25, -4500000.375, -4500000.375, -3235101.0, -2476803.0, -3088907.25, -4500000.375, -4500000.375, -4500000.375, -4500000.375, -4500000.375, -4500000.375, -4500000.375, -4500000.375, 0.004000000189989805, 0.9900000691413879, 0.22600001096725464, 192.0, 0.0, 0.0, 0.0, 0.0, 0.0, 0.0, 0.0, 0.0, 0.0, 1.629854034576233E9, 2021-08-24 19:13:54.576
82.0, -1701203.0625, -2343006.9375, -3607453.5, -4500000.375, -4500000.375, -3237901.125, -2481714.5625, -3090589.5, -4500000.375, -4500000.375, -4500000.375, -4500000.375, -4500000.375, -4500000.375, -4500000.375, -4500000.375, 0.004000000189989805, 0.9900000691413879, 0.22600001096725464, 192.0, 0.0, 0.0, 0.0, 0.0, 0.0, 0.0, 0.0, 0.0, 0.0, 1.6298540345762396E9, 2021-08-24 19:13:54.576
84.0, -1720522.875, -2372385.1875, -3607549.5, -4500000.375, -4500000.375, -3235228.125, -2483777.8125, -3089441.625, -4500000.375, -4500000.375, -4500000.375, -4500000.375, -4500000.375, -4500000.375, -4500000.375, -4500000.375, 0.004000000189989805, 0.9900000691413879, 0.22600001096725464, 192.0, 0.0, 0.0, 0.0, 0.0, 0.0, 0.0, 0.0, 0.0, 0.0, 1.6298540345762482E9, 2021-08-24 19:13:54.576
86.0, -1695977.0625, -2333819.25, -3608116.875, -4500000.375, -4500000.375, -3237049.875, -2472639.5625, -3089808.5625, -4500000.375, -4500000.375, -4500000.375, -4500000.375, -4500000.375, -4500000.375, -4500000.375, -4500000.375, 0.004000000189989805, 0.9920000433921814, 0.22600001096725464, 192.0, 0.0, 16.0, 15.5, 0.0, 3.5, 8.0, 0.0, 0.0, 0.0, 1.629854034576255E9, 2021-08-24 19:13:54.576
88.0, -1713600.75, -2362904.625, -3607796.625, -4500000.375, -4500000.375, -3236164.125, -2483974.125, -3090008.625, -4500000.375, -4500000.375, -4500000.375, -4500000.375, -4500000.375, -4500000.375, -4500000.375, -4500000.375, 0.004000000189989805, 0.9920000433921814, 0.22600001096725464, 192.0, 0.0, 0.0, 0.0, 0.0, 0.0, 0.0, 0.0, 0.0, 0.0, 1.6298540345762622E9, 2021-08-24 19:13:54.576
90.0, -1701820.5, -2344135.5, -3607858.875, -4500000.375, -4500000.375, -3236866.125, -2477368.3125, -3090117.9375, -4500000.375, -4500000.375, -4500000.375, -4500000.375, -4500000.375, -4500000.375, -4500000.375, -4500000.375, 0.004000000189989805, 0.9920000433921814, 0.22600001096725464, 192.0, 0.0, 0.0, 0.0, 0.0, 0.0, 0.0, 0.0, 0.0, 0.0, 1.6298540345762691E9, 2021-08-24 19:13:54.576
92.0, -1716409.5, -2367053.4375, -3607917.375, -4500000.375, -4500000.375, -3236602.125, -2486790.0, -3090498.9375, -4500000.375, -4500000.375, -4500000.375, -4500000.375, -4500000.375, -4500000.375, -4500000.375, -4500000.375, 0.004000000189989805, 0.9920000433921814, 0.22600001096725464, 192.0, 0.0, 0.0, 0.0, 0.0, 0.0, 0.0, 0.0, 0.0, 0.0, 1.629854034576276E9, 2021-08-24 19:13:54.576
94.0, -1701212.0625, -2343023.4375, -3608525.625, -4500000.375, -4500000.375, -3236967.0, -2474286.5625, -3090285.9375, -4500000.375, -4500000.375, -4500000.375, -4500000.375, -4500000.375, -4500000.375, -4500000.375, -4500000.375, 0.003000000142492354, 0.9920000433921814, 0.2280000075697899, 192.0, 0.0, 8.0, 15.5, 0.0, 3.5, 24.0, 0.0, 0.0, 0.0, 1.6298540345762827E9, 2021-08-24 19:13:54.576
96.0, -1718196.375, -2369723.8125, -3607627.875, -4500000.375, -4500000.375, -3236987.625, -2490160.875, -3091041.1875, -4500000.375, -4500000.375, -4500000.375, -4500000.375, -4500000.375, -4500000.375, -4500000.375, -4500000.375, 0.003000000142492354, 0.9920000433921814, 0.2280000075697899, 192.0, 0.0, 0.0, 0.0, 0.0, 0.0, 0.0, 0.0, 0.0, 0.0, 1.6298540345762897E9, 2021-08-24 19:13:54.576
98.0, -1701130.125, -2342639.4375, -3608518.875, -4500000.375, -4500000.375, -3236441.625, -2471275.5, -3089909.25, -4500000.375, -4500000.375, -4500000.375, -4500000.375, -4500000.375, -4500000.375, -4500000.375, -4500000.375, 0.003000000142492354, 0.9920000433921814, 0.2280000075697899, 192.0, 0.0, 0.0, 0.0, 0.0, 0.0, 0.0, 0.0, 0.0, 0.0, 1.6298540345762997E9, 2021-08-24 19:13:54.576
100.0, -1719332.0625, -2371343.25, -3607266.375, -4500000.375, -4500000.375, -3237283.875, -2492471.4375, -3091280.4375, -4500000.375, -4500000.375, -4500000.375, -4500000.375, -4500000.375, -4500000.375, -4500000.375, -4500000.375, 0.003000000142492354, 0.9920000433921814, 0.2280000075697899, 192.0, 0.0, 0.0, 0.0, 0.0, 0.0, 0.0, 0.0, 0.0, 0.0, 1.6298540345763223E9, 2021-08-24 19:13:54.576
102.0, -1701350.625, -2342873.25, -3608539.875, -4500000.375, -4500000.375, -3236064.0, -2469072.9375, -3089254.875, -4500000.375, -4500000.375, -4500000.375, -4500000.375, -4500000.375, -4500000.375, -4500000.375, -4500000.375, 0.003000000142492354, 0.9920000433921814, 0.2280000075697899, 192.0, 0.0, 0.0, 0.0, 0.0, 0.0, 0.0, 0.0, 0.0, 0.0, 1.6298540345763297E9, 2021-08-24 19:13:54.576
104.0, -1718989.3125, -2371596.0, -3607442.625, -4500000.375, -4500000.375, -3237767.625, -2494135.875, -3090750.9375, -4500000.375, -4500000.375, -4500000.375, -4500000.375, -4500000.375, -4500000.375, -4500000.375, -4500000.375, 5.000000237487257E-4, 0.9900000393390656, 0.22500001266598701, 192.0, 127.5, 120.0, 15.0, 112.0, 3.0, 120.0, 0.0, 0.0, 0.0, 1.6298540345763364E9, 2021-08-24 19:13:54.576
106.0, -1701605.25, -2343785.25, -3609108.375, -4500000.375, -4500000.375, -3236061.75, -2468010.1875, -3088989.375, -4500000.375, -4500000.375, -4500000.375, -4500000.375, -4500000.375, -4500000.375, -4500000.375, -4500000.375, 5.000000237487257E-4, 0.9900000393390656, 0.22500001266598701, 192.0, 0.0, 0.0, 0.0, 0.0, 0.0, 0.0, 0.0, 0.0, 0.0, 1.629854034576357E9, 2021-08-24 19:13:54.576
108.0, -1718710.875, -2371025.8125, -3607407.375, -4500000.375, -4500000.375, -3237904.125, -2495160.0, -3091241.25, -4500000.375, -4500000.375, -4500000.375, -4500000.375, -4500000.375, -4500000.375, -4500000.375, -4500000.375, 5.000000237487257E-4, 0.9900000393390656, 0.22500001266598701, 192.0, 0.0, 0.0, 0.0, 0.0, 0.0, 0.0, 0.0, 0.0, 0.0, 1.629854034576377E9, 2021-08-24 19:13:54.576
110.0, -1702967.4375, -2345543.625, -3609089.625, -4500000.375, -4500000.375, -3235792.5, -2467826.625, -3088902.375, -4500000.375, -4500000.375, -4500000.375, -4500000.375, -4500000.375, -4500000.375, -4500000.375, -4500000.375, 5.000000237487257E-4, 0.9900000393390656, 0.22500001266598701, 192.0, 0.0, 0.0, 0.0, 0.0, 0.0, 0.0, 0.0, 0.0, 0.0, 1.6298540345763836E9, 2021-08-24 19:13:54.576
112.0, -1717456.6875, -2369081.625, -3607463.25, -4500000.375, -4500000.375, -3238038.0, -2495205.0, -3091170.5625, -4500000.375, -4500000.375, -4500000.375, -4500000.375, -4500000.375, -4500000.375, -4500000.375, -4500000.375, 5.000000237487257E-4, 0.9900000393390656, 0.22500001266598701, 192.0, 0.0, 0.0, 0.0, 0.0, 0.0, 0.0, 0.0, 0.0, 0.0, 1.629854034576392E9, 2021-08-24 19:13:54.576
114.0, -1704335.8125, -2347842.9375, -3609356.25, -4500000.375, -4500000.375, -3235638.0, -2468335.6875, -3088893.375, -4500000.375, -4500000.375, -4500000.375, -4500000.375, -4500000.375, -4500000.375, -4500000.375, -4500000.375, 5.000000237487257E-4, 0.9900000393390656, 0.22500001266598701, 192.0, 0.0, 0.0, 15.0, 120.0, 3.0, 120.0, 0.0, 0.0, 0.0, 1.6298540345763986E9, 2021-08-24 19:13:54.576
116.0, -1715691.1875, -2366337.75, -3607831.125, -4500000.375, -4500000.375, -3238464.0, -2494463.625, -3091696.6875, -4500000.375, -4500000.375, -4500000.375, -4500000.375, -4500000.375, -4500000.375, -4500000.375, -4500000.375, 5.000000237487257E-4, 0.9900000393390656, 0.22500001266598701, 192.0, 0.0, 0.0, 0.0, 0.0, 0.0, 0.0, 0.0, 0.0, 0.0, 1.6298540345764053E9, 2021-08-24 19:13:54.576
118.0, -1706097.0, -2350521.9375, -3609388.875, -4500000.375, -4500000.375, -3235695.0, -2469660.75, -3089162.0625, -4500000.375, -4500000.375, -4500000.375, -4500000.375, -4500000.375, -4500000.375, -4500000.375, -4500000.375, 5.000000237487257E-4, 0.9900000393390656, 0.22500001266598701, 192.0, 0.0, 0.0, 0.0, 0.0, 0.0, 0.0, 0.0, 0.0, 0.0, 1.6298540345764134E9, 2021-08-24 19:13:54.576
120.0, -1713593.8125, -2362841.25, -3607246.875, -4500000.375, -4500000.375, -3237765.75, -2492314.6875, -3091148.4375, -4500000.375, -4500000.375, -4500000.375, -4500000.375, -4500000.375, -4500000.375, -4500000.375, -4500000.375, 5.000000237487257E-4, 0.9900000393390656, 0.22500001266598701, 192.0, 0.0, 0.0, 0.0, 0.0, 0.0, 0.0, 0.0, 0.0, 0.0, 1.629854035056546E9, 2021-08-24 19:13:55.056
122.0, -1708543.125, -2353893.9375, -3608694.375, -4500000.375, -4500000.375, -3235139.625, -2471606.4375, -3088901.8125, -4500000.375, -4500000.375, -4500000.375, -4500000.375, -4500000.375, -4500000.375, -4500000.375, -4500000.375, 5.000000237487257E-4, 0.9900000393390656, 0.22500001266598701, 192.0, 0.0, 0.0, 0.0, 0.0, 0.0, 0.0, 0.0, 0.0, 0.0, 1.6298540350567296E9, 2021-08-24 19:13:55.056
124.0, -1711728.0, -2359415.625, -3607951.125, -4500000.375, -4500000.375, -3238089.75, -2490009.5625, -3091680.75, -4500000.375, -4500000.375, -4500000.375, -4500000.375, -4500000.375, -4500000.375, -4500000.375, -4500000.375, 0.0022500001068692654, 0.9900000542402267, 0.22150001116096973, 192.0, 0.0, 16.0, 15.0, 120.0, 3.0, 104.0, 0.0, 0.0, 0.0, 1.6298540350567365E9, 2021-08-24 19:13:55.056
126.0, -1710988.875, -2357368.5, -3609149.25, -4500000.375, -4500000.375, -3235755.375, -2474637.9375, -3089999.4375, -4500000.375, -4500000.375, -4500000.375, -4500000.375, -4500000.375, -4500000.375, -4500000.375, -4500000.375, 0.0022500001068692654, 0.9900000542402267, 0.22150001116096973, 192.0, 0.0, 0.0, 0.0, 0.0, 0.0, 0.0, 0.0, 0.0, 0.0, 1.6298540350567436E9, 2021-08-24 19:13:55.056
128.0, -1710386.8125, -2356175.4375, -3607717.5, -4500000.375, -4500000.375, -3237655.125, -2487334.875, -3091730.0625, -4500000.375, -4500000.375, -4500000.375, -4500000.375, -4500000.375, -4500000.375, -4500000.375, -4500000.375, 0.0022500001068692654, 0.9900000542402267, 0.22150001116096973, 192.0, 0.0, 0.0, 0.0, 0.0, 0.0, 0.0, 0.0, 0.0, 0.0, 1.6298540350567665E9, 2021-08-24 19:13:55.056
130.0, -1713559.5, -2361186.9375, -3608847.75, -4500000.375, -4500000.375, -3235938.0, -2477839.875, -3090168.9375, -4500000.375, -4500000.375, -4500000.375, -4500000.375, -4500000.375, -4500000.375, -4500000.375, -4500000.375, 0.0022500001068692654, 0.9900000542402267, 0.22150001116096973, 192.0, 0.0, 0.0, 0.0, 0.0, 0.0, 0.0, 0.0, 0.0, 0.0, 1.6298540350567732E9, 2021-08-24 19:13:55.056
132.0, -1707917.0625, -2353026.5625, -3608531.25, -4500000.375, -4500000.375, -3238068.0, -2484705.75, -3091358.8125, -4500000.375, -4500000.375, -4500000.375, -4500000.375, -4500000.375, -4500000.375, -4500000.375, -4500000.375, 0.0022500001068692654, 0.9900000542402267, 0.22150001116096973, 192.0, 0.0, 0.0, 0.0, 0.0, 0.0, 0.0, 0.0, 0.0, 0.0, 1.6298540350567799E9, 2021-08-24 19:13:55.056
134.0, -1715508.75, -2364700.5, -3608926.125, -4500000.375, -4500000.375, -3236449.875, -2481736.6875, -3090665.625, -4500000.375, -4500000.375, -4500000.375, -4500000.375, -4500000.375, -4500000.375, -4500000.375, -4500000.375, 0.004125000079511665, 0.9890000447630882, 0.22075001243501902, 192.0, 0.0, 24.0, 15.0, 112.0, 3.0, 112.0, 0.0, 0.0, 0.0, 1.6298540350567863E9, 2021-08-24 19:13:55.056
136.0, -1706186.625, -2350202.25, -3608638.5, -4500000.375, -4500000.375, -3237595.125, -2481409.875, -3091029.375, -4500000.375, -4500000.375, -4500000.375, -4500000.375, -4500000.375, -4500000.375, -4500000.375, -4500000.375, 0.004125000079511665, 0.9890000447630882, 0.22075001243501902, 192.0, 0.0, 0.0, 0.0, 0.0, 0.0, 0.0, 0.0, 0.0, 0.0, 1.629854035056793E9, 2021-08-24 19:13:55.056
138.0, -1717092.9375, -2367429.0, -3608976.0, -4500000.375, -4500000.375, -3236709.375, -2484978.9375, -3090699.0, -4500000.375, -4500000.375, -4500000.375, -4500000.375, -4500000.375, -4500000.375, -4500000.375, -4500000.375, 0.004125000079511665, 0.9890000447630882, 0.22075001243501902, 192.0, 0.0, 0.0, 0.0, 0.0, 0.0, 0.0, 0.0, 0.0, 0.0, 1.6298540350567997E9, 2021-08-24 19:13:55.056
140.0, -1704418.5, -2347402.5, -3609113.625, -4500000.375, -4500000.375, -3237334.875, -2477987.4375, -3090842.25, -4500000.375, -4500000.375, -4500000.375, -4500000.375, -4500000.375, -4500000.375, -4500000.375, -4500000.375, 0.004125000079511665, 0.9890000447630882, 0.22075001243501902, 192.0, 0.0, 0.0, 0.0, 0.0, 0.0, 0.0, 0.0, 0.0, 0.0, 1.629854035056806E9, 2021-08-24 19:13:55.056
142.0, -1718736.5625, -2369494.125, -3608434.125, -4500000.375, -4500000.375, -3236748.375, -2487985.6875, -3090963.9375, -4500000.375, -4500000.375, -4500000.375, -4500000.375, -4500000.375, -4500000.375, -4500000.375, -4500000.375, 0.004125000079511665, 0.9890000447630882, 0.22075001243501902, 192.0, 0.0, 0.0, 0.0, 0.0, 0.0, 0.0, 0.0, 0.0, 0.0, 1.6298540350568135E9, 2021-08-24 19:13:55.056
144.0, -1703516.625, -2345503.5, -3609022.125, -4500000.375, -4500000.375, -3236662.125, -2474797.6875, -3090239.25, -4500000.375, -4500000.375, -4500000.375, -4500000.375, -4500000.375, -4500000.375, -4500000.375, -4500000.375, 0.006000000052154064, 0.9860000610351562, 0.21400001645088196, 192.0, 0.0, 24.0, 15.0, 104.0, 3.0, 88.0, 0.0, 0.0, 0.0, 1.6298540350568202E9, 2021-08-24 19:13:55.056
146.0, -1719425.4375, -2370678.75, -3608615.25, -4500000.375, -4500000.375, -3237277.5, -2490902.8125, -3091264.875, -4500000.375, -4500000.375, -4500000.375, -4500000.375, -4500000.375, -4500000.375, -4500000.375, -4500000.375, 0.006000000052154064, 0.9860000610351562, 0.21400001645088196, 192.0, 0.0, 0.0, 0.0, 0.0, 0.0, 0.0, 0.0, 0.0, 0.0, 1.6298540350568268E9, 2021-08-24 19:13:55.056
148.0, -1702568.25, -2344146.75, -3609772.875, -4500000.375, -4500000.375, -3236807.625, -2472737.25, -3090642.5625, -4500000.375, -4500000.375, -4500000.375, -4500000.375, -4500000.375, -4500000.375, -4500000.375, -4500000.375, 0.006000000052154064, 0.9860000610351562, 0.21400001645088196, 192.0, 0.0, 0.0, 0.0, 0.0, 0.0, 0.0, 0.0, 0.0, 0.0, 1.6298540350568335E9, 2021-08-24 19:13:55.056
150.0, -1719650.625, -2371132.5, -3608680.875, -4500000.375, -4500000.375, -3237635.625, -2493404.25, -3091814.8125, -4500000.375, -4500000.375, -4500000.375, -4500000.375, -4500000.375, -4500000.375, -4500000.375, -4500000.375, 0.006000000052154064, 0.9860000610351562, 0.21400001645088196, 192.0, 0.0, 0.0, 0.0, 0.0, 0.0, 0.0, 0.0, 0.0, 0.0, 1.62985403505684E9, 2021-08-24 19:13:55.056
152.0, -1702335.375, -2343804.0, -3609867.375, -4500000.375, -4500000.375, -3236326.875, -2470843.125, -3089679.75, -4500000.375, -4500000.375, -4500000.375, -4500000.375, -4500000.375, -4500000.375, -4500000.375, -4500000.375, 0.006000000052154064, 0.9860000610351562, 0.21400001645088196, 192.0, 0.0, 0.0, 0.0, 0.0, 0.0, 0.0, 0.0, 0.0, 0.0, 1.6298540350568545E9, 2021-08-24 19:13:55.056
154.0, -1719267.1875, -2370708.1875, -3608548.875, -4500000.375, -4500000.375, -3237852.375, -2494742.0625, -3091801.875, -4500000.375, -4500000.375, -4500000.375, -4500000.375, -4500000.375, -4500000.375, -4500000.375, -4500000.375, 0.00800000037997961, 0.9900000691413879, 0.2120000123977661, 192.0, 0.0, 32.0, 15.0, 120.0, 3.0, 80.0, 0.0, 0.0, 0.0, 1.6298540350568612E9, 2021-08-24 19:13:55.056
156.0, -1702882.6875, -2344728.375, -3610173.75, -4500000.375, -4500000.375, -3236146.125, -2469817.875, -3090152.25, -4500000.375, -4500000.375, -4500000.375, -4500000.375, -4500000.375, -4500000.375, -4500000.375, -4500000.375, 0.00800000037997961, 0.9900000691413879, 0.2120000123977661, 192.0, 0.0, 0.0, 0.0, 0.0, 0.0, 0.0, 0.0, 0.0, 0.0, 1.629854035056868E9, 2021-08-24 19:13:55.056
158.0, -1718733.375, -2369804.8125, -3608314.875, -4500000.375, -4500000.375, -3237841.875, -2495262.9375, -3092016.0, -4500000.375, -4500000.375, -4500000.375, -4500000.375, -4500000.375, -4500000.375, -4500000.375, -4500000.375, 0.00800000037997961, 0.9900000691413879, 0.2120000123977661, 192.0, 0.0, 0.0, 0.0, 0.0, 0.0, 0.0, 0.0, 0.0, 0.0, 1.6298540350568745E9, 2021-08-24 19:13:55.056
160.0, -1704273.5625, -2346706.125, -3609961.875, -4500000.375, -4500000.375, -3235641.75, -2469501.375, -3089840.625, -4500000.375, -4500000.375, -4500000.375, -4500000.375, -4500000.375, -4500000.375, -4500000.375, -4500000.375, 0.00800000037997961, 0.9900000691413879, 0.2120000123977661, 192.0, 0.0, 0.0, 0.0, 0.0, 0.0, 0.0, 0.0, 0.0, 0.0, 1.629854035056881E9, 2021-08-24 19:13:55.056
162.0, -1717435.6875, -2367939.5625, -3608669.625, -4500000.375, -4500000.375, -3238305.375, -2495267.8125, -3092353.3125, -4500000.375, -4500000.375, -4500000.375, -4500000.375, -4500000.375, -4500000.375, -4500000.375, -4500000.375, 0.00800000037997961, 0.9900000691413879, 0.2120000123977661, 192.0, 0.0, 0.0, 0.0, 0.0, 0.0, 0.0, 0.0, 0.0, 0.0, 1.6298540350568876E9, 2021-08-24 19:13:55.056
164.0, -1705977.375, -2349316.5, -3609910.875, -4500000.375, -4500000.375, -3235579.125, -2470488.0, -3089945.25, -4500000.375, -4500000.375, -4500000.375, -4500000.375, -4500000.375, -4500000.375, -4500000.375, -4500000.375, 0.00800000037997961, 0.9960000514984131, 0.2120000123977661, 192.0, 0.0, 32.0, 15.5, 16.0, 3.0, 80.0, 0.0, 0.0, 0.0, 1.6298540350568943E9, 2021-08-24 19:13:55.056
166.0, -1715849.4375, -2365421.0625, -3608635.125, -4500000.375, -4500000.375, -3238262.25, -2494070.4375, -3092257.875, -4500000.375, -4500000.375, -4500000.375, -4500000.375, -4500000.375, -4500000.375, -4500000.375, -4500000.375, 0.00800000037997961, 0.9960000514984131, 0.2120000123977661, 192.0, 0.0, 0.0, 0.0, 0.0, 0.0, 0.0, 0.0, 0.0, 0.0, 1.6298540350569007E9, 2021-08-24 19:13:55.056
168.0, -1707659.0625, -2352088.875, -3610075.125, -4500000.375, -4500000.375, -3235735.5, -2471514.1875, -3090135.75, -4500000.375, -4500000.375, -4500000.375, -4500000.375, -4500000.375, -4500000.375, -4500000.375, -4500000.375, 0.00800000037997961, 0.9960000514984131, 0.2120000123977661, 192.0, 0.0, 0.0, 0.0, 0.0, 0.0, 0.0, 0.0, 0.0, 0.0, 1.6298540350569072E9, 2021-08-24 19:13:55.056
170.0, -1713769.125, -2362317.1875, -3609111.375, -4500000.375, -4500000.375, -3238665.75, -2492169.375, -3092402.25, -4500000.375, -4500000.375, -4500000.375, -4500000.375, -4500000.375, -4500000.375, -4500000.375, -4500000.375, 0.00800000037997961, 0.9960000514984131, 0.2120000123977661, 192.0, 0.0, 0.0, 0.0, 0.0, 0.0, 0.0, 0.0, 0.0, 0.0, 1.629854035056914E9, 2021-08-24 19:13:55.056
172.0, -1710010.875, -2355603.5625, -3609952.875, -4500000.375, -4500000.375, -3236046.75, -2473674.375, -3090406.125, -4500000.375, -4500000.375, -4500000.375, -4500000.375, -4500000.375, -4500000.375, -4500000.375, -4500000.375, 0.00800000037997961, 0.9960000514984131, 0.2120000123977661, 192.0, 0.0, 0.0, 0.0, 0.0, 0.0, 0.0, 0.0, 0.0, 0.0, 1.6298540350569203E9, 2021-08-24 19:13:55.056
174.0, -1712111.0625, -2359265.4375, -3608910.75, -4500000.375, -4500000.375, -3238528.5, -2489959.6875, -3092128.6875, -4500000.375, -4500000.375, -4500000.375, -4500000.375, -4500000.375, -4500000.375, -4500000.375, -4500000.375, 0.00800000037997961, 0.9860000610351562, 0.21000000834465027, 192.0, 0.0, 32.0, 15.0, 104.0, 3.0, 72.0, 0.0, 0.0, 0.0, 1.629854035056927E9, 2021-08-24 19:13:55.056
176.0, -1712803.5, -2359789.5, -3609946.875, -4500000.375, -4500000.375, -3236334.75, -2476740.75, -3090495.1875, -4500000.375, -4500000.375, -4500000.375, -4500000.375, -4500000.375, -4500000.375, -4500000.375, -4500000.375, 0.00800000037997961, 0.9860000610351562, 0.21000000834465027, 192.0, 0.0, 0.0, 0.0, 0.0, 0.0, 0.0, 0.0, 0.0, 0.0, 1.6298540350569336E9, 2021-08-24 19:13:55.056
178.0, -1710681.9375, -2356642.6875, -3609007.875, -4500000.375, -4500000.375, -3238366.5, -2487372.9375, -3091873.875, -4500000.375, -4500000.375, -4500000.375, -4500000.375, -4500000.375, -4500000.375, -4500000.375, -4500000.375, 0.00800000037997961, 0.9860000610351562, 0.21000000834465027, 192.0, 0.0, 0.0, 0.0, 0.0, 0.0, 0.0, 0.0, 0.0, 0.0, 1.62985403505694E9, 2021-08-24 19:13:55.056
180.0, -1715522.25, -2363719.5, -3609837.375, -4500000.375, -4500000.375, -3236519.25, -2479737.9375, -3090687.1875, -4500000.375, -4500000.375, -4500000.375, -4500000.375, -4500000.375, -4500000.375, -4500000.375, -4500000.375, 0.00800000037997961, 0.9860000610351562, 0.21000000834465027, 192.0, 0.0, 0.0, 0.0, 0.0, 0.0, 0.0, 0.0, 0.0, 0.0, 1.6298540350569468E9, 2021-08-24 19:13:55.056
182.0, -1709033.4375, -2353754.4375, -3609639.375, -4500000.375, -4500000.375, -3238471.125, -2484483.1875, -3092064.75, -4500000.375, -4500000.375, -4500000.375, -4500000.375, -4500000.375, -4500000.375, -4500000.375, -4500000.375, 0.00800000037997961, 0.9860000610351562, 0.21000000834465027, 192.0, 0.0, 0.0, 0.0, 0.0, 0.0, 0.0, 0.0, 0.0, 0.0, 1.6298540350569532E9, 2021-08-24 19:13:55.056
184.0, -1717701.75, -2367134.4375, -3609905.625, -4500000.375, -4500000.375, -3237000.0, -2483259.0, -3091344.9375, -4500000.375, -4500000.375, -4500000.375, -4500000.375, -4500000.375, -4500000.375, -4500000.375, -4500000.375, 0.006000000052154064, 0.9800000190734863, 0.20600001513957977, 192.0, 0.0, 24.0, 15.0, 80.0, 3.0, 56.0, 0.0, 0.0, 0.0, 1.6298540350569599E9, 2021-08-24 19:13:55.056
186.0, -1707320.625, -2350965.5625, -3609563.625, -4500000.375, -4500000.375, -3237931.5, -2481112.6875, -3091767.0, -4500000.375, -4500000.375, -4500000.375, -4500000.375, -4500000.375, -4500000.375, -4500000.375, -4500000.375, 0.006000000052154064, 0.9800000190734863, 0.20600001513957977, 192.0, 0.0, 0.0, 0.0, 0.0, 0.0, 0.0, 0.0, 0.0, 0.0, 1.629854035056969E9, 2021-08-24 19:13:55.056
188.0, -1719261.75, -2369700.75, -3609513.375, -4500000.375, -4500000.375, -3237075.75, -2486232.0, -3091530.9375, -4500000.375, -4500000.375, -4500000.375, -4500000.375, -4500000.375, -4500000.375, -4500000.375, -4500000.375, 0.006000000052154064, 0.9800000190734863, 0.20600001513957977, 192.0, 0.0, 0.0, 0.0, 0.0, 0.0, 0.0, 0.0, 0.0, 0.0, 1.6298540350569756E9, 2021-08-24 19:13:55.056
190.0, -1705880.8125, -2348584.875, -3609643.875, -4500000.375, -4500000.375, -3237487.125, -2477796.0, -3091616.8125, -4500000.375, -4500000.375, -4500000.375, -4500000.375, -4500000.375, -4500000.375, -4500000.375, -4500000.375, 0.006000000052154064, 0.9800000190734863, 0.20600001513957977, 192.0, 0.0, 0.0, 0.0, 0.0, 0.0, 0.0, 0.0, 0.0, 0.0, 1.6298540350569823E9, 2021-08-24 19:13:55.056
192.0, -1720479.5625, -2371487.625, -3609219.0, -4500000.375, -4500000.375, -3237255.375, -2488819.875, -3091783.125, -4500000.375, -4500000.375, -4500000.375, -4500000.375, -4500000.375, -4500000.375, -4500000.375, -4500000.375, 0.006000000052154064, 0.9780000448226929, 0.20800001174211502, 192.0, 0.0, 24.0, 15.0, 64.0, 3.0, 72.0, 0.0, 0.0, 0.0, 1.6298540350569887E9, 2021-08-24 19:13:55.056
194.0, -1704694.125, -2346675.5625, -3610000.875, -4500000.375, -4500000.375, -3237144.0, -2474835.75, -3091106.0625, -4500000.375, -4500000.375, -4500000.375, -4500000.375, -4500000.375, -4500000.375, -4500000.375, -4500000.375, 0.006000000052154064, 0.9780000448226929, 0.20800001174211502, 192.0, 0.0, 0.0, 0.0, 0.0, 0.0, 0.0, 0.0, 0.0, 0.0, 1.6298540350569954E9, 2021-08-24 19:13:55.056
196.0, -1721297.0625, -2372640.375, -3609148.5, -4500000.375, -4500000.375, -3237680.25, -2491665.5625, -3092204.25, -4500000.375, -4500000.375, -4500000.375, -4500000.375, -4500000.375, -4500000.375, -4500000.375, -4500000.375, 0.006000000052154064, 0.9780000448226929, 0.20800001174211502, 192.0, 0.0, 0.0, 0.0, 0.0, 0.0, 0.0, 0.0, 0.0, 0.0, 1.629854035057002E9, 2021-08-24 19:13:55.057
198.0, -1704400.6875, -2346028.6875, -3610365.375, -4500000.375, -4500000.375, -3237157.125, -2472970.6875, -3091051.875, -4500000.375, -4500000.375, -4500000.375, -4500000.375, -4500000.375, -4500000.375, -4500000.375, -4500000.375, 0.006000000052154064, 0.9780000448226929, 0.20800001174211502, 192.0, 0.0, 0.0, 0.0, 0.0, 0.0, 0.0, 0.0, 0.0, 0.0, 1.6298540350570085E9, 2021-08-24 19:13:55.057
200.0, -1721467.6875, -2373014.8125, -3609139.875, -4500000.375, -4500000.375, -3238193.625, -2493802.875, -3092706.375, -4500000.375, -4500000.375, -4500000.375, -4500000.375, -4500000.375, -4500000.375, -4500000.375, -4500000.375, 0.006000000052154064, 0.9780000448226929, 0.20800001174211502, 192.0, 0.0, 0.0, 0.0, 0.0, 0.0, 0.0, 0.0, 0.0, 0.0, 1.629854035057015E9, 2021-08-24 19:13:55.057
202.0, -1704392.625, -2346120.9375, -3610381.875, -4500000.375, -4500000.375, -3236788.875, -2471577.5625, -3091032.1875, -4500000.375, -4500000.375, -4500000.375, -4500000.375, -4500000.375, -4500000.375, -4500000.375, -4500000.375, 0.007000000216066837, 0.9800000488758087, 0.20800000801682472, 192.0, 0.0, 32.0, 15.0, 88.0, 3.0, 64.0, 0.0, 0.0, 0.0, 1.6298540350570216E9, 2021-08-24 19:13:55.057
204.0, -1720753.6875, -2372133.5625, -3609260.625, -4500000.375, -4500000.375, -3238745.625, -2495131.5, -3092839.3125, -4500000.375, -4500000.375, -4500000.375, -4500000.375, -4500000.375, -4500000.375, -4500000.375, -4500000.375, 0.007000000216066837, 0.9800000488758087, 0.20800000801682472, 192.0, 0.0, 0.0, 0.0, 0.0, 0.0, 0.0, 0.0, 0.0, 0.0, 1.6298540350570283E9, 2021-08-24 19:13:55.057
206.0, -1705116.9375, -2347153.5, -3610719.375, -4500000.375, -4500000.375, -3236990.25, -2471058.75, -3091149.0, -4500000.375, -4500000.375, -4500000.375, -4500000.375, -4500000.375, -4500000.375, -4500000.375, -4500000.375, 0.007000000216066837, 0.9800000488758087, 0.20800000801682472, 192.0, 0.0, 0.0, 0.0, 0.0, 0.0, 0.0, 0.0, 0.0, 0.0, 1.6298540350570347E9, 2021-08-24 19:13:55.057
208.0, -1719949.5, -2370812.8125, -3609128.25, -4500000.375, -4500000.375, -3238980.75, -2495515.125, -3093315.1875, -4500000.375, -4500000.375, -4500000.375, -4500000.375, -4500000.375, -4500000.375, -4500000.375, -4500000.375, 0.007000000216066837, 0.9800000488758087, 0.20800000801682472, 192.0, 0.0, 0.0, 0.0, 0.0, 0.0, 0.0, 0.0, 0.0, 0.0, 1.6298540350570433E9, 2021-08-24 19:13:55.057
210.0, -1706391.5625, -2348984.4375, -3610596.375, -4500000.375, -4500000.375, -3236759.625, -2471002.875, -3091069.6875, -4500000.375, -4500000.375, -4500000.375, -4500000.375, -4500000.375, -4500000.375, -4500000.375, -4500000.375, 0.007000000216066837, 0.9800000488758087, 0.20800000801682472, 192.0, 0.0, 0.0, 0.0, 0.0, 0.0, 0.0, 0.0, 0.0, 0.0, 1.6298540350570495E9, 2021-08-24 19:13:55.057
212.0, -1718770.875, -2368766.8125, -3609102.375, -4500000.375, -4500000.375, -3239060.625, -2495345.0625, -3093498.75, -4500000.375, -4500000.375, -4500000.375, -4500000.375, -4500000.375, -4500000.375, -4500000.375, -4500000.375, 0.013500000815838575, 0.9810000509023666, 0.2090000081807375, 192.0, 0.0, 80.0, 15.0, 88.0, 3.0, 72.0, 0.0, 0.0, 0.0, 1.6298540350570776E9, 2021-08-24 19:13:55.057
214.0, -1707845.25, -2351531.4375, -3610771.125, -4500000.375, -4500000.375, -3236690.625, -2472079.6875, -3090894.75, -4500000.375, -4500000.375, -4500000.375, -4500000.375, -4500000.375, -4500000.375, -4500000.375, -4500000.375, 0.013500000815838575, 0.9810000509023666, 0.2090000081807375, 192.0, 0.0, 0.0, 0.0, 0.0, 0.0, 0.0, 0.0, 0.0, 0.0, 1.6298540350570848E9, 2021-08-24 19:13:55.057
216.0, -1716930.375, -2366131.3125, -3609300.75, -4500000.375, -4500000.375, -3239041.875, -2494212.1875, -3092950.5, -4500000.375, -4500000.375, -4500000.375, -4500000.375, -4500000.375, -4500000.375, -4500000.375, -4500000.375, 0.013500000815838575, 0.9810000509023666, 0.2090000081807375, 192.0, 0.0, 0.0, 0.0, 0.0, 0.0, 0.0, 0.0, 0.0, 0.0, 1.6298540350570917E9, 2021-08-24 19:13:55.057
218.0, -1709859.5625, -2354564.4375, -3610916.625, -4500000.375, -4500000.375, -3236715.75, -2473535.4375, -3091253.0625, -4500000.375, -4500000.375, -4500000.375, -4500000.375, -4500000.375, -4500000.375, -4500000.375, -4500000.375, 0.013500000815838575, 0.9810000509023666, 0.2090000081807375, 192.0, 0.0, 0.0, 0.0, 0.0, 0.0, 0.0, 0.0, 0.0, 0.0, 1.6298540350570989E9, 2021-08-24 19:13:55.057
220.0, -1714920.375, -2362787.0625, -3609537.375, -4500000.375, -4500000.375, -3239179.125, -2492481.5625, -3093433.3125, -4500000.375, -4500000.375, -4500000.375, -4500000.375, -4500000.375, -4500000.375, -4500000.375, -4500000.375, 0.013500000815838575, 0.9810000509023666, 0.2090000081807375, 192.0, 0.0, 0.0, 0.0, 0.0, 0.0, 0.0, 0.0, 0.0, 0.0, 1.6298540350571232E9, 2021-08-24 19:13:55.057
222.0, -1711709.8125, -2357628.75, -3610911.375, -4500000.375, -4500000.375, -3236800.5, -2475916.6875, -3091144.6875, -4500000.375, -4500000.375, -4500000.375, -4500000.375, -4500000.375, -4500000.375, -4500000.375, -4500000.375, 0.021750001003965735, 0.9815000519156456, 0.21350000891834497, 192.0, 0.0, 120.0, 15.0, 88.0, 3.0, 104.0, 0.0, 0.0, 0.0, 1.62985403505713E9, 2021-08-24 19:13:55.057
224.0, -1712466.1875, -2358962.8125, -3609371.625, -4500000.375, -4500000.375, -3238684.5, -2490008.625, -3092897.8125, -4500000.375, -4500000.375, -4500000.375, -4500000.375, -4500000.375, -4500000.375, -4500000.375, -4500000.375, 0.021750001003965735, 0.9815000519156456, 0.21350000891834497, 192.0, 0.0, 0.0, 0.0, 0.0, 0.0, 0.0, 0.0, 0.0, 0.0, 1.6298540350571368E9, 2021-08-24 19:13:55.057
226.0, -1713721.5, -2360562.0, -3610302.375, -4500000.375, -4500000.375, -3236338.125, -2478130.125, -3091253.625, -4500000.375, -4500000.375, -4500000.375, -4500000.375, -4500000.375, -4500000.375, -4500000.375, -4500000.375, 0.021750001003965735, 0.9815000519156456, 0.21350000891834497, 192.0, 0.0, 0.0, 0.0, 0.0, 0.0, 0.0, 0.0, 0.0, 0.0, 1.6298540350571437E9, 2021-08-24 19:13:55.057
228.0, -1710369.75, -2355468.375, -3609473.25, -4500000.375, -4500000.375, -3238263.0, -2487046.875, -3092436.0, -4500000.375, -4500000.375, -4500000.375, -4500000.375, -4500000.375, -4500000.375, -4500000.375, -4500000.375, 0.021750001003965735, 0.9815000519156456, 0.21350000891834497, 192.0, 0.0, 0.0, 0.0, 0.0, 0.0, 0.0, 0.0, 0.0, 0.0, 1.6298540350571501E9, 2021-08-24 19:13:55.057
230.0, -1715836.125, -2363916.375, -3610231.5, -4500000.375, -4500000.375, -3236735.25, -2481274.6875, -3091404.375, -4500000.375, -4500000.375, -4500000.375, -4500000.375, -4500000.375, -4500000.375, -4500000.375, -4500000.375, 0.021750001003965735, 0.9815000519156456, 0.21350000891834497, 192.0, 0.0, 0.0, 0.0, 0.0, 0.0, 0.0, 0.0, 0.0, 0.0, 1.629854035057157E9, 2021-08-24 19:13:55.057
232.0, -1708383.375, -2352440.25, -3610042.125, -4500000.375, -4500000.375, -3238450.125, -2484379.125, -3092717.625, -4500000.375, -4500000.375, -4500000.375, -4500000.375, -4500000.375, -4500000.375, -4500000.375, -4500000.375, 0.03200000151991844, 0.9780000448226929, 0.2160000056028366, 192.0, 0.5, 0.0, 15.0, 72.0, 3.0, 96.0, 0.0, 0.0, 0.0, 1.6298540350571826E9, 2021-08-24 19:13:55.057
234.0, -1717649.8125, -2366955.75, -3609981.0, -4500000.375, -4500000.375, -3236966.25, -2484647.4375, -3091885.125, -4500000.375, -4500000.375, -4500000.375, -4500000.375, -4500000.375, -4500000.375, -4500000.375, -4500000.375, 0.03200000151991844, 0.9780000448226929, 0.2160000056028366, 192.0, 0.0, 0.0, 0.0, 0.0, 0.0, 0.0, 0.0, 0.0, 0.0, 1.6298540350571897E9, 2021-08-24 19:13:55.057
236.0, -1706563.6875, -2349765.5625, -3610512.375, -4500000.375, -4500000.375, -3238314.0, -2481432.9375, -3092513.25, -4500000.375, -4500000.375, -4500000.375, -4500000.375, -4500000.375, -4500000.375, -4500000.375, -4500000.375, 0.03200000151991844, 0.9780000448226929, 0.2160000056028366, 192.0, 0.0, 0.0, 0.0, 0.0, 0.0, 0.0, 0.0, 0.0, 0.0, 1.6298540350571964E9, 2021-08-24 19:13:55.057
238.0, -1719098.25, -2369317.6875, -3610241.25, -4500000.375, -4500000.375, -3237628.875, -2487820.875, -3092797.5, -4500000.375, -4500000.375, -4500000.375, -4500000.375, -4500000.375, -4500000.375, -4500000.375, -4500000.375, 0.03200000151991844, 0.9780000448226929, 0.2160000056028366, 192.0, 0.0, 0.0, 0.0, 0.0, 0.0, 0.0, 0.0, 0.0, 0.0, 1.6298540350572035E9, 2021-08-24 19:13:55.057
240.0, -1705393.6875, -2347883.0625, -3610382.25, -4500000.375, -4500000.375, -3237791.25, -2478345.1875, -3092091.0, -4500000.375, -4500000.375, -4500000.375, -4500000.375, -4500000.375, -4500000.375, -4500000.375, -4500000.375, 0.03200000151991844, 0.9780000448226929, 0.2160000056028366, 192.0, 0.0, 0.0, 0.0, 0.0, 0.0, 0.0, 0.0, 0.0, 0.0, 1.6298540355373547E9, 2021-08-24 19:13:55.537
242.0, -1720305.75, -2371074.0, -3609796.5, -4500000.375, -4500000.375, -3237666.75, -2490395.25, -3092353.3125, -4500000.375, -4500000.375, -4500000.375, -4500000.375, -4500000.375, -4500000.375, -4500000.375, -4500000.375, 0.03400000184774399, 0.9920000433921814, 0.20800000429153442, 192.0, 0.5, 8.0, 15.5, 0.0, 3.0, 64.0, 0.0, 0.0, 0.0, 1.6298540355375757E9, 2021-08-24 19:13:55.537
244.0, -1704434.0625, -2346349.5, -3610695.75, -4500000.375, -4500000.375, -3237472.5, -2475674.8125, -3091780.5, -4500000.375, -4500000.375, -4500000.375, -4500000.375, -4500000.375, -4500000.375, -4500000.375, -4500000.375, 0.03400000184774399, 0.9920000433921814, 0.20800000429153442, 192.0, 0.0, 0.0, 0.0, 0.0, 0.0, 0.0, 0.0, 0.0, 0.0, 1.629854035537585E9, 2021-08-24 19:13:55.537
246.0, -1720823.4375, -2371728.0, -3609474.75, -4500000.375, -4500000.375, -3237767.625, -2492721.9375, -3092889.1875, -4500000.375, -4500000.375, -4500000.375, -4500000.375, -4500000.375, -4500000.375, -4500000.375, -4500000.375, 0.03400000184774399, 0.9920000433921814, 0.20800000429153442, 192.0, 0.0, 0.0, 0.0, 0.0, 0.0, 0.0, 0.0, 0.0, 0.0, 1.6298540355375955E9, 2021-08-24 19:13:55.537
248.0, -1704215.625, -2345736.75, -3610512.75, -4500000.375, -4500000.375, -3236764.125, -2473604.625, -3091755.1875, -4500000.375, -4500000.375, -4500000.375, -4500000.375, -4500000.375, -4500000.375, -4500000.375, -4500000.375, 0.03400000184774399, 0.9920000433921814, 0.20800000429153442, 192.0, 0.0, 0.0, 0.0, 0.0, 0.0, 0.0, 0.0, 0.0, 0.0, 1.6298540355376074E9, 2021-08-24 19:13:55.537
250.0, -1720754.625, -2371564.875, -3608880.375, -4500000.375, -4500000.375, -3237382.125, -2493892.3125, -3092308.875, -4500000.375, -4500000.375, -4500000.375, -4500000.375, -4500000.375, -4500000.375, -4500000.375, -4500000.375, 0.03400000184774399, 0.9920000433921814, 0.20800000429153442, 192.0, 0.0, 0.0, 0.0, 0.0, 0.0, 0.0, 0.0, 0.0, 0.0, 1.6298540355376155E9, 2021-08-24 19:13:55.537
252.0, -1704532.6875, -2346068.8125, -3610636.125, -4500000.375, -4500000.375, -3236442.0, -2471898.375, -3091002.5625, -4500000.375, -4500000.375, -4500000.375, -4500000.375, -4500000.375, -4500000.375, -4500000.375, -4500000.375, 0.03400000184774399, 0.9960000514984131, 0.2120000123977661, 192.0, 0.5, 8.0, 15.5, 16.0, 3.0, 80.0, 0.0, 0.0, 0.0, 1.629854035537624E9, 2021-08-24 19:13:55.537
254.0, -1720314.75, -2370769.3125, -3609465.0, -4500000.375, -4500000.375, -3238199.625, -2495104.3125, -3093290.4375, -4500000.375, -4500000.375, -4500000.375, -4500000.375, -4500000.375, -4500000.375, -4500000.375, -4500000.375, 0.03400000184774399, 0.9960000514984131, 0.2120000123977661, 192.0, 0.0, 0.0, 0.0, 0.0, 0.0, 0.0, 0.0, 0.0, 0.0, 1.629854035537642E9, 2021-08-24 19:13:55.537
0.0, -1705315.3125, -2347367.0625, -3611021.25, -4500000.375, -4500000.375, -3236392.125, -2471515.3125, -3091424.25, -4500000.375, -4500000.375, -4500000.375, -4500000.375, -4500000.375, -4500000.375, -4500000.375, -4500000.375, 0.03400000184774399, 0.9960000514984131, 0.2120000123977661, 192.0, 0.0, 0.0, 0.0, 0.0, 0.0, 0.0, 0.0, 0.0, 0.0, 1.6298540355376496E9, 2021-08-24 19:13:55.537
2.0, -1719003.1875, -2369172.375, -3609711.75, -4500000.375, -4500000.375, -3238430.625, -2495273.8125, -3093566.25, -4500000.375, -4500000.375, -4500000.375, -4500000.375, -4500000.375, -4500000.375, -4500000.375, -4500000.375, 0.03400000184774399, 0.9960000514984131, 0.2120000123977661, 192.0, 0.0, 0.0, 0.0, 0.0, 0.0, 0.0, 0.0, 0.0, 0.0, 1.6298540355376577E9, 2021-08-24 19:13:55.537
4.0, -1706322.75, -2349269.25, -3611182.125, -4500000.375, -4500000.375, -3236097.75, -2471453.0625, -3090986.4375, -4500000.375, -4500000.375, -4500000.375, -4500000.375, -4500000.375, -4500000.375, -4500000.375, -4500000.375, 0.03400000184774399, 0.9960000514984131, 0.2120000123977661, 192.0, 0.0, 0.0, 0.0, 0.0, 0.0, 0.0, 0.0, 0.0, 0.0, 1.6298540355376647E9, 2021-08-24 19:13:55.537
6.0, -1717319.8125, -2366909.625, -3609838.5, -4500000.375, -4500000.375, -3238599.75, -2494758.1875, -3093259.5, -4500000.375, -4500000.375, -4500000.375, -4500000.375, -4500000.375, -4500000.375, -4500000.375, -4500000.375, 0.04000000283122063, 0.984000027179718, 0.21800000965595245, 192.0, 0.5, 32.0, 15.0, 96.0, 3.0, 104.0, 0.0, 0.0, 0.0, 1.6298540355376716E9, 2021-08-24 19:13:55.537
8.0, -1707887.625, -2352041.625, -3611088.375, -4500000.375, -4500000.375, -3236021.25, -2472437.4375, -3091009.5, -4500000.375, -4500000.375, -4500000.375, -4500000.375, -4500000.375, -4500000.375, -4500000.375, -4500000.375, 0.04000000283122063, 0.984000027179718, 0.21800000965595245, 192.0, 0.0, 0.0, 0.0, 0.0, 0.0, 0.0, 0.0, 0.0, 0.0, 1.6298540355376782E9, 2021-08-24 19:13:55.537
10.0, -1715606.4375, -2364357.75, -3609980.625, -4500000.375, -4500000.375, -3238663.125, -2493583.5, -3093456.375, -4500000.375, -4500000.375, -4500000.375, -4500000.375, -4500000.375, -4500000.375, -4500000.375, -4500000.375, 0.04000000283122063, 0.984000027179718, 0.21800000965595245, 192.0, 0.0, 0.0, 0.0, 0.0, 0.0, 0.0, 0.0, 0.0, 0.0, 1.629854035537685E9, 2021-08-24 19:13:55.537
12.0, -1709965.875, -2355265.6875, -3611140.5, -4500000.375, -4500000.375, -3236175.75, -2474354.0625, -3091588.3125, -4500000.375, -4500000.375, -4500000.375, -4500000.375, -4500000.375, -4500000.375, -4500000.375, -4500000.375, 0.04000000283122063, 0.984000027179718, 0.21800000965595245, 192.0, 0.0, 0.0, 0.0, 0.0, 0.0, 0.0, 0.0, 0.0, 0.0, 1.6298540355376918E9, 2021-08-24 19:13:55.537
14.0, -1713832.5, -2361536.625, -3610129.875, -4500000.375, -4500000.375, -3238526.625, -2491692.9375, -3093388.125, -4500000.375, -4500000.375, -4500000.375, -4500000.375, -4500000.375, -4500000.375, -4500000.375, -4500000.375, 0.04000000283122063, 0.984000027179718, 0.21800000965595245, 192.0, 0.0, 0.0, 0.0, 0.0, 0.0, 0.0, 0.0, 0.0, 0.0, 1.6298540355376985E9, 2021-08-24 19:13:55.537
16.0, -1712117.4375, -2358688.125, -3610911.75, -4500000.375, -4500000.375, -3236040.375, -2476336.875, -3091315.875, -4500000.375, -4500000.375, -4500000.375, -4500000.375, -4500000.375, -4500000.375, -4500000.375, -4500000.375, 0.05000000074505806, 0.9820000529289246, 0.2200000137090683, 192.0, 0.5, 72.0, 15.0, 88.0, 3.0, 112.0, 0.0, 0.0, 0.0, 1.6298540355377052E9, 2021-08-24 19:13:55.537
18.0, -1711727.4375, -2358435.5625, -3610156.5, -4500000.375, -4500000.375, -3238336.5, -2489238.1875, -3092898.9375, -4500000.375, -4500000.375, -4500000.375, -4500000.375, -4500000.375, -4500000.375, -4500000.375, -4500000.375, 0.05000000074505806, 0.9820000529289246, 0.2200000137090683, 192.0, 0.0, 0.0, 0.0, 0.0, 0.0, 0.0, 0.0, 0.0, 0.0, 1.6298540355377138E9, 2021-08-24 19:13:55.537
20.0, -1714165.5, -2362140.75, -3610888.875, -4500000.375, -4500000.375, -3236227.5, -2479113.375, -3091552.5, -4500000.375, -4500000.375, -4500000.375, -4500000.375, -4500000.375, -4500000.375, -4500000.375, -4500000.375, 0.05000000074505806, 0.9820000529289246, 0.2200000137090683, 192.0, 0.0, 0.0, 0.0, 0.0, 0.0, 0.0, 0.0, 0.0, 0.0, 1.6298540355377204E9, 2021-08-24 19:13:55.537
22.0, -1709739.375, -2355451.6875, -3610345.5, -4500000.375, -4500000.375, -3238161.0, -2486387.0625, -3093020.25, -4500000.375, -4500000.375, -4500000.375, -4500000.375, -4500000.375, -4500000.375, -4500000.375, -4500000.375, 0.05000000074505806, 0.9820000529289246, 0.2200000137090683, 192.0, 0.0, 0.0, 0.0, 0.0, 0.0, 0.0, 0.0, 0.0, 0.0, 1.629854035537727E9, 2021-08-24 19:13:55.537
24.0, -1716099.375, -2365236.5625, -3610879.125, -4500000.375, -4500000.375, -3236623.125, -2482119.5625, -3091846.875, -4500000.375, -4500000.375, -4500000.375, -4500000.375, -4500000.375, -4500000.375, -4500000.375, -4500000.375, 0.04900000058114529, 0.9820000529289246, 0.22500000894069672, 192.0, 0.5, 64.0, 15.0, 88.0, 3.5, 24.0, 0.0, 0.0, 0.0, 1.629854035537734E9, 2021-08-24 19:13:55.537
26.0, -1707928.3125, -2352564.1875, -3610466.625, -4500000.375, -4500000.375, -3237793.875, -2483335.6875, -3092604.9375, -4500000.375, -4500000.375, -4500000.375, -4500000.375, -4500000.375, -4500000.375, -4500000.375, -4500000.375, 0.04900000058114529, 0.9820000529289246, 0.22500000894069672, 192.0, 0.0, 0.0, 0.0, 0.0, 0.0, 0.0, 0.0, 0.0, 0.0, 1.6298540355377407E9, 2021-08-24 19:13:55.537
28.0, -1717878.75, -2367725.0625, -3610644.75, -4500000.375, -4500000.375, -3236924.625, -2485112.4375, -3092101.3125, -4500000.375, -4500000.375, -4500000.375, -4500000.375, -4500000.375, -4500000.375, -4500000.375, -4500000.375, 0.04900000058114529, 0.9820000529289246, 0.22500000894069672, 192.0, 0.0, 0.0, 0.0, 0.0, 0.0, 0.0, 0.0, 0.0, 0.0, 1.6298540355377476E9, 2021-08-24 19:13:55.537
30.0, -1706118.375, -2349728.4375, -3610665.0, -4500000.375, -4500000.375, -3237649.125, -2480288.25, -3092273.4375, -4500000.375, -4500000.375, -4500000.375, -4500000.375, -4500000.375, -4500000.375, -4500000.375, -4500000.375, 0.04900000058114529, 0.9820000529289246, 0.22500000894069672, 192.0, 0.0, 0.0, 0.0, 0.0, 0.0, 0.0, 0.0, 0.0, 0.0, 1.6298540355377543E9, 2021-08-24 19:13:55.537
32.0, -1719158.8125, -2369672.25, -3610115.25, -4500000.375, -4500000.375, -3236881.125, -2488046.25, -3092392.5, -4500000.375, -4500000.375, -4500000.375, -4500000.375, -4500000.375, -4500000.375, -4500000.375, -4500000.375, 0.04900000058114529, 0.9820000529289246, 0.22500000894069672, 192.0, 0.0, 0.0, 0.0, 0.0, 0.0, 0.0, 0.0, 0.0, 0.0, 1.6298540355377638E9, 2021-08-24 19:13:55.537
34.0, -1705238.625, -2348024.25, -3610472.625, -4500000.375, -4500000.375, -3236998.5, -2477287.3125, -3091935.0, -4500000.375, -4500000.375, -4500000.375, -4500000.375, -4500000.375, -4500000.375, -4500000.375, -4500000.375, 0.0465000020340085, 0.9800000488758087, 0.2305000126361847, 192.0, 0.5, 48.0, 15.0, 72.0, 3.5, 48.0, 0.0, 0.0, 0.0, 1.6298540355377705E9, 2021-08-24 19:13:55.537
36.0, -1720195.125, -2371133.0625, -3610071.75, -4500000.375, -4500000.375, -3237403.125, -2490749.4375, -3092672.0625, -4500000.375, -4500000.375, -4500000.375, -4500000.375, -4500000.375, -4500000.375, -4500000.375, -4500000.375, 0.0465000020340085, 0.9800000488758087, 0.2305000126361847, 192.0, 0.0, 0.0, 0.0, 0.0, 0.0, 0.0, 0.0, 0.0, 0.0, 1.6298540355377774E9, 2021-08-24 19:13:55.537
38.0, -1704515.0625, -2346851.625, -3611071.125, -4500000.375, -4500000.375, -3237115.5, -2475186.1875, -3091862.4375, -4500000.375, -4500000.375, -4500000.375, -4500000.375, -4500000.375, -4500000.375, -4500000.375, -4500000.375, 0.0465000020340085, 0.9800000488758087, 0.2305000126361847, 192.0, 0.0, 0.0, 0.0, 0.0, 0.0, 0.0, 0.0, 0.0, 0.0, 1.629854035537784E9, 2021-08-24 19:13:55.537
40.0, -1720702.125, -2371716.75, -3609994.125, -4500000.375, -4500000.375, -3237717.375, -2493256.125, -3093248.625, -4500000.375, -4500000.375, -4500000.375, -4500000.375, -4500000.375, -4500000.375, -4500000.375, -4500000.375, 0.0465000020340085, 0.9800000488758087, 0.2305000126361847, 192.0, 0.0, 0.0, 0.0, 0.0, 0.0, 0.0, 0.0, 0.0, 0.0, 1.6298540355377908E9, 2021-08-24 19:13:55.537
42.0, -1704548.8125, -2346720.1875, -3611240.25, -4500000.375, -4500000.375, -3236742.75, -2473515.75, -3091827.1875, -4500000.375, -4500000.375, -4500000.375, -4500000.375, -4500000.375, -4500000.375, -4500000.375, -4500000.375, 0.0465000020340085, 0.9800000488758087, 0.2305000126361847, 192.0, 0.0, 0.0, 0.0, 0.0, 0.0, 0.0, 0.0, 0.0, 0.0, 1.6298540355377977E9, 2021-08-24 19:13:55.537
44.0, -1720662.9375, -2371565.4375, -3610030.5, -4500000.375, -4500000.375, -3238051.125, -2494840.875, -3093209.4375, -4500000.375, -4500000.375, -4500000.375, -4500000.375, -4500000.375, -4500000.375, -4500000.375, -4500000.375, 0.04825000138953328, 0.9800000339746475, 0.23125001043081284, 192.0, 0.5, 72.0, 15.0, 80.0, 3.5, 32.0, 0.0, 0.0, 0.0, 1.6298540355378044E9, 2021-08-24 19:13:55.537
46.0, -1705045.5, -2347440.5625, -3611413.875, -4500000.375, -4500000.375, -3236437.5, -2472299.625, -3091710.75, -4500000.375, -4500000.375, -4500000.375, -4500000.375, -4500000.375, -4500000.375, -4500000.375, -4500000.375, 0.04825000138953328, 0.9800000339746475, 0.23125001043081284, 192.0, 0.0, 0.0, 0.0, 0.0, 0.0, 0.0, 0.0, 0.0, 0.0, 1.6298540355378113E9, 2021-08-24 19:13:55.537
48.0, -1719877.6875, -2370518.25, -3610185.0, -4500000.375, -4500000.375, -3238402.5, -2495541.375, -3093464.25, -4500000.375, -4500000.375, -4500000.375, -4500000.375, -4500000.375, -4500000.375, -4500000.375, -4500000.375, 0.04825000138953328, 0.9800000339746475, 0.23125001043081284, 192.0, 0.0, 0.0, 0.0, 0.0, 0.0, 0.0, 0.0, 0.0, 0.0, 1.629854035537818E9, 2021-08-24 19:13:55.537
50.0, -1705954.3125, -2348587.5, -3611392.875, -4500000.375, -4500000.375, -3236167.875, -2471960.0625, -3091684.875, -4500000.375, -4500000.375, -4500000.375, -4500000.375, -4500000.375, -4500000.375, -4500000.375, -4500000.375, 0.04825000138953328, 0.9800000339746475, 0.23125001043081284, 192.0, 0.0, 0.0, 0.0, 0.0, 0.0, 0.0, 0.0, 0.0, 0.0, 1.6298540355378249E9, 2021-08-24 19:13:55.537
52.0, -1718930.8125, -2368699.6875, -3609889.875, -4500000.375, -4500000.375, -3238236.0, -2495556.375, -3093593.0625, -4500000.375, -4500000.375, -4500000.375, -4500000.375, -4500000.375, -4500000.375, -4500000.375, -4500000.375, 0.04825000138953328, 0.9800000339746475, 0.23125001043081284, 192.0, 0.0, 0.0, 0.0, 0.0, 0.0, 0.0, 0.0, 0.0, 0.0, 1.6298540355378315E9, 2021-08-24 19:13:55.537
54.0, -1707335.625, -2350696.3125, -3611248.125, -4500000.375, -4500000.375, -3235996.875, -2472295.875, -3091439.25, -4500000.375, -4500000.375, -4500000.375, -4500000.375, -4500000.375, -4500000.375, -4500000.375, -4500000.375, 0.05112500139512122, 0.9820000305771828, 0.22962501272559166, 192.0, 0.5, 88.0, 15.0, 96.0, 3.5, 16.0, 0.0, 0.0, 0.0, 1.6298540355378385E9, 2021-08-24 19:13:55.537
56.0, -1717405.125, -2366517.0, -3609767.625, -4500000.375, -4500000.375, -3238287.0, -2494567.6875, -3093661.6875, -4500000.375, -4500000.375, -4500000.375, -4500000.375, -4500000.375, -4500000.375, -4500000.375, -4500000.375, 0.05112500139512122, 0.9820000305771828, 0.22962501272559166, 192.0, 0.0, 0.0, 0.0, 0.0, 0.0, 0.0, 0.0, 0.0, 0.0, 1.629854035537845E9, 2021-08-24 19:13:55.537
58.0, -1708815.1875, -2353169.8125, -3611369.25, -4500000.375, -4500000.375, -3236082.75, -2472941.625, -3091457.0625, -4500000.375, -4500000.375, -4500000.375, -4500000.375, -4500000.375, -4500000.375, -4500000.375, -4500000.375, 0.05112500139512122, 0.9820000305771828, 0.22962501272559166, 192.0, 0.0, 0.0, 0.0, 0.0, 0.0, 0.0, 0.0, 0.0, 0.0, 1.6298540355378518E9, 2021-08-24 19:13:55.537
60.0, -1715175.75, -2363379.375, -3610411.875, -4500000.375, -4500000.375, -3238842.375, -2493259.3125, -3093572.625, -4500000.375, -4500000.375, -4500000.375, -4500000.375, -4500000.375, -4500000.375, -4500000.375, -4500000.375, 0.05112500139512122, 0.9820000305771828, 0.22962501272559166, 192.0, 0.0, 0.0, 0.0, 0.0, 0.0, 0.0, 0.0, 0.0, 0.0, 1.6298540355378585E9, 2021-08-24 19:13:55.537
62.0, -1710756.0, -2356160.4375, -3611269.125, -4500000.375, -4500000.375, -3236320.875, -2475379.3125, -3091491.375, -4500000.375, -4500000.375, -4500000.375, -4500000.375, -4500000.375, -4500000.375, -4500000.375, -4500000.375, 0.05112500139512122, 0.9820000305771828, 0.22962501272559166, 192.0, 0.0, 0.0, 0.0, 0.0, 0.0, 0.0, 0.0, 0.0, 0.0, 1.6298540355378652E9, 2021-08-24 19:13:55.537
64.0, -1713524.625, -2360344.125, -3610243.875, -4500000.375, -4500000.375, -3238660.5, -2491558.3125, -3093178.875, -4500000.375, -4500000.375, -4500000.375, -4500000.375, -4500000.375, -4500000.375, -4500000.375, -4500000.375, 0.05400000140070915, 0.9780000448226929, 0.23200000822544098, 192.0, 0.5, 88.0, 15.0, 72.0, 3.5, 32.0, 0.0, 0.0, 0.0, 1.629854035537872E9, 2021-08-24 19:13:55.537
66.0, -1712884.5, -2359121.625, -3611526.75, -4500000.375, -4500000.375, -3236712.375, -2477854.3125, -3091809.9375, -4500000.375, -4500000.375, -4500000.375, -4500000.375, -4500000.375, -4500000.375, -4500000.375, -4500000.375, 0.05400000140070915, 0.9780000448226929, 0.23200000822544098, 192.0, 0.0, 0.0, 0.0, 0.0, 0.0, 0.0, 0.0, 0.0, 0.0, 1.629854035537881E9, 2021-08-24 19:13:55.537
68.0, -1711323.5625, -2356988.0625, -3610420.875, -4500000.375, -4500000.375, -3238644.375, -2489179.3125, -3093229.875, -4500000.375, -4500000.375, -4500000.375, -4500000.375, -4500000.375, -4500000.375, -4500000.375, -4500000.375, 0.05400000140070915, 0.9780000448226929, 0.23200000822544098, 192.0, 0.0, 0.0, 0.0, 0.0, 0.0, 0.0, 0.0, 0.0, 0.0, 1.6298540355378876E9, 2021-08-24 19:13:55.537
70.0, -1714878.0, -2362206.1875, -3610939.125, -4500000.375, -4500000.375, -3236538.75, -2480481.9375, -3091935.0, -4500000.375, -4500000.375, -4500000.375, -4500000.375, -4500000.375, -4500000.375, -4500000.375, -4500000.375, 0.05400000140070915, 0.9780000448226929, 0.23200000822544098, 192.0, 0.0, 0.0, 0.0, 0.0, 0.0, 0.0, 0.0, 0.0, 0.0, 1.6298540355378945E9, 2021-08-24 19:13:55.537
72.0, -1709773.6875, -2354143.875, -3610323.375, -4500000.375, -4500000.375, -3238178.25, -2486146.6875, -3092925.1875, -4500000.375, -4500000.375, -4500000.375, -4500000.375, -4500000.375, -4500000.375, -4500000.375, -4500000.375, 0.05400000140070915, 0.9780000448226929, 0.23200000822544098, 192.0, 0.0, 0.0, 0.0, 0.0, 0.0, 0.0, 0.0, 0.0, 0.0, 1.6298540355379016E9, 2021-08-24 19:13:55.537
74.0, -1716963.1875, -2365220.4375, -3610965.375, -4500000.375, -4500000.375, -3236877.375, -2483472.5625, -3091745.0625, -4500000.375, -4500000.375, -4500000.375, -4500000.375, -4500000.375, -4500000.375, -4500000.375, -4500000.375, 0.0560000017285347, 0.9940000176429749, 0.2240000069141388, 192.0, 0.5, 96.0, 15.5, 8.0, 3.5, 0.0, 0.0, 0.0, 0.0, 1.6298540355379083E9, 2021-08-24 19:13:55.537
76.0, -1707789.0, -2351378.625, -3610906.875, -4500000.375, -4500000.375, -3238237.125, -2483410.875, -3092640.375, -4500000.375, -4500000.375, -4500000.375, -4500000.375, -4500000.375, -4500000.375, -4500000.375, -4500000.375, 0.0560000017285347, 0.9940000176429749, 0.2240000069141388, 192.0, 0.0, 0.0, 0.0, 0.0, 0.0, 0.0, 0.0, 0.0, 0.0, 1.6298540355379288E9, 2021-08-24 19:13:55.537
78.0, -1718678.0625, -2367939.5625, -3610738.5, -4500000.375, -4500000.375, -3237201.75, -2486884.875, -3092407.5, -4500000.375, -4500000.375, -4500000.375, -4500000.375, -4500000.375, -4500000.375, -4500000.375, -4500000.375, 0.0560000017285347, 0.9940000176429749, 0.2240000069141388, 192.0, 0.0, 0.0, 0.0, 0.0, 0.0, 0.0, 0.0, 0.0, 0.0, 1.6298540355379357E9, 2021-08-24 19:13:55.537
80.0, -1706613.5625, -2349277.875, -3610741.125, -4500000.375, -4500000.375, -3237595.125, -2480287.6875, -3092319.0, -4500000.375, -4500000.375, -4500000.375, -4500000.375, -4500000.375, -4500000.375, -4500000.375, -4500000.375, 0.0560000017285347, 0.9940000176429749, 0.2240000069141388, 192.0, 0.0, 0.0, 0.0, 0.0, 0.0, 0.0, 0.0, 0.0, 0.0, 1.629854035537943E9, 2021-08-24 19:13:55.537
82.0, -1720035.375, -2369870.8125, -3610554.75, -4500000.375, -4500000.375, -3237368.625, -2489823.5625, -3092781.0, -4500000.375, -4500000.375, -4500000.375, -4500000.375, -4500000.375, -4500000.375, -4500000.375, -4500000.375, 0.0560000017285347, 0.9940000176429749, 0.2240000069141388, 192.0, 0.0, 0.0, 0.0, 0.0, 0.0, 0.0, 0.0, 0.0, 0.0, 1.6298540355379496E9, 2021-08-24 19:13:55.537
84.0, -1705532.625, -2347710.9375, -3611382.375, -4500000.375, -4500000.375, -3237571.875, -2477492.8125, -3092447.25, -4500000.375, -4500000.375, -4500000.375, -4500000.375, -4500000.375, -4500000.375, -4500000.375, -4500000.375, 0.06000000238418579, 0.9960000514984131, 0.22800001502037048, 192.0, 0.5, 112.0, 15.5, 16.0, 3.5, 16.0, 0.0, 0.0, 0.0, 1.6298540355379567E9, 2021-08-24 19:13:55.537
86.0, -1720900.125, -2371225.3125, -3610400.625, -4500000.375, -4500000.375, -3237655.5, -2492265.9375, -3093192.375, -4500000.375, -4500000.375, -4500000.375, -4500000.375, -4500000.375, -4500000.375, -4500000.375, -4500000.375, 0.06000000238418579, 0.9960000514984131, 0.22800001502037048, 192.0, 0.0, 0.0, 0.0, 0.0, 0.0, 0.0, 0.0, 0.0, 0.0, 1.6298540355379636E9, 2021-08-24 19:13:55.537
88.0, -1705329.9375, -2347062.375, -3611241.75, -4500000.375, -4500000.375, -3236820.375, -2475112.125, -3092224.6875, -4500000.375, -4500000.375, -4500000.375, -4500000.375, -4500000.375, -4500000.375, -4500000.375, -4500000.375, 0.06000000238418579, 0.9960000514984131, 0.22800001502037048, 192.0, 0.0, 0.0, 0.0, 0.0, 0.0, 0.0, 0.0, 0.0, 0.0, 1.6298540355379705E9, 2021-08-24 19:13:55.537
90.0, -1721269.125, -2371625.4375, -3610690.875, -4500000.375, -4500000.375, -3238046.625, -2494194.9375, -3093814.6875, -4500000.375, -4500000.375, -4500000.375, -4500000.375, -4500000.375, -4500000.375, -4500000.375, -4500000.375, 0.06000000238418579, 0.9960000514984131, 0.22800001502037048, 192.0, 0.0, 0.0, 0.0, 0.0, 0.0, 0.0, 0.0, 0.0, 0.0, 1.6298540355379777E9, 2021-08-24 19:13:55.537
92.0, -1705215.5625, -2347113.375, -3611757.75, -4500000.375, -4500000.375, -3236778.375, -2473644.375, -3092538.375, -4500000.375, -4500000.375, -4500000.375, -4500000.375, -4500000.375, -4500000.375, -4500000.375, -4500000.375, 0.06000000238418579, 0.9960000514984131, 0.22800001502037048, 192.0, 0.0, 0.0, 0.0, 0.0, 0.0, 0.0, 0.0, 0.0, 0.0, 1.6298540355379846E9, 2021-08-24 19:13:55.537
94.0, -1721183.25, -2371594.875, -3610444.125, -4500000.375, -4500000.375, -3238198.5, -2495693.25, -3093921.375, -4500000.375, -4500000.375, -4500000.375, -4500000.375, -4500000.375, -4500000.375, -4500000.375, -4500000.375, 0.07200000435113907, 0.9800000190734863, 0.2200000137090683, 192.0, 1.0, 32.0, 15.0, 80.0, 3.0, 112.0, 0.0, 0.0, 0.0, 1.6298540355380049E9, 2021-08-24 19:13:55.538
96.0, -1706063.625, -2348099.8125, -3611683.875, -4500000.375, -4500000.375, -3236414.25, -2472781.3125, -3091615.3125, -4500000.375, -4500000.375, -4500000.375, -4500000.375, -4500000.375, -4500000.375, -4500000.375, -4500000.375, 0.07200000435113907, 0.9800000190734863, 0.2200000137090683, 192.0, 0.0, 0.0, 0.0, 0.0, 0.0, 0.0, 0.0, 0.0, 0.0, 1.629854035538012E9, 2021-08-24 19:13:55.538
98.0, -1720600.125, -2370441.0, -3610319.25, -4500000.375, -4500000.375, -3238240.875, -2496236.0625, -3093810.375, -4500000.375, -4500000.375, -4500000.375, -4500000.375, -4500000.375, -4500000.375, -4500000.375, -4500000.375, 0.07200000435113907, 0.9800000190734863, 0.2200000137090683, 192.0, 0.0, 0.0, 0.0, 0.0, 0.0, 0.0, 0.0, 0.0, 0.0, 1.6298540355380187E9, 2021-08-24 19:13:55.538
100.0, -1707160.125, -2349674.25, -3611995.5, -4500000.375, -4500000.375, -3236334.0, -2472495.9375, -3091526.25, -4500000.375, -4500000.375, -4500000.375, -4500000.375, -4500000.375, -4500000.375, -4500000.375, -4500000.375, 0.07200000435113907, 0.9800000190734863, 0.2200000137090683, 192.0, 0.0, 0.0, 0.0, 0.0, 0.0, 0.0, 0.0, 0.0, 0.0, 1.6298540355380273E9, 2021-08-24 19:13:55.538
102.0, -1719107.8125, -2368377.375, -3610654.875, -4500000.375, -4500000.375, -3238700.25, -2496110.0625, -3093641.8125, -4500000.375, -4500000.375, -4500000.375, -4500000.375, -4500000.375, -4500000.375, -4500000.375, -4500000.375, 0.07200000435113907, 0.9800000190734863, 0.2200000137090683, 192.0, 0.0, 0.0, 0.0, 0.0, 0.0, 0.0, 0.0, 0.0, 0.0, 1.6298540355380344E9, 2021-08-24 19:13:55.538
104.0, -1708406.8125, -2351682.1875, -3612088.875, -4500000.375, -4500000.375, -3236437.875, -2473125.1875, -3091733.8125, -4500000.375, -4500000.375, -4500000.375, -4500000.375, -4500000.375, -4500000.375, -4500000.375, -4500000.375, 0.07600000500679016, 0.9820000529289246, 0.21400001645088196, 192.0, 1.0, 48.0, 15.0, 88.0, 3.0, 88.0, 0.0, 0.0, 0.0, 1.6298540360171878E9, 2021-08-24 19:13:56.017
106.0, -1717496.8125, -2365922.625, -3610785.375, -4500000.375, -4500000.375, -3238823.625, -2495135.8125, -3093971.25, -4500000.375, -4500000.375, -4500000.375, -4500000.375, -4500000.375, -4500000.375, -4500000.375, -4500000.375, 0.07600000500679016, 0.9820000529289246, 0.21400001645088196, 192.0, 0.0, 0.0, 0.0, 0.0, 0.0, 0.0, 0.0, 0.0, 0.0, 1.6298540360173843E9, 2021-08-24 19:13:56.017
108.0, -1710155.0625, -2354272.125, -3612049.125, -4500000.375, -4500000.375, -3236350.875, -2474413.6875, -3091745.625, -4500000.375, -4500000.375, -4500000.375, -4500000.375, -4500000.375, -4500000.375, -4500000.375, -4500000.375, 0.07600000500679016, 0.9820000529289246, 0.21400001645088196, 192.0, 0.0, 0.0, 0.0, 0.0, 0.0, 0.0, 0.0, 0.0, 0.0, 1.6298540360173912E9, 2021-08-24 19:13:56.017
110.0, -1715609.625, -2362981.875, -3610957.5, -4500000.375, -4500000.375, -3238770.375, -2493602.8125, -3093811.5, -4500000.375, -4500000.375, -4500000.375, -4500000.375, -4500000.375, -4500000.375, -4500000.375, -4500000.375, 0.07600000500679016, 0.9820000529289246, 0.21400001645088196, 192.0, 0.0, 0.0, 0.0, 0.0, 0.0, 0.0, 0.0, 0.0, 0.0, 1.6298540360173995E9, 2021-08-24 19:13:56.017
112.0, -1712054.625, -2357282.0625, -3612045.375, -4500000.375, -4500000.375, -3236548.5, -2476240.3125, -3092001.375, -4500000.375, -4500000.375, -4500000.375, -4500000.375, -4500000.375, -4500000.375, -4500000.375, -4500000.375, 0.07300000265240669, 0.9860000610351562, 0.2160000130534172, 192.0, 1.0, 24.0, 15.0, 120.0, 3.0, 104.0, 0.0, 0.0, 0.0, 1.6298540360174112E9, 2021-08-24 19:13:56.017
114.0, -1713796.5, -2359840.875, -3610858.875, -4500000.375, -4500000.375, -3238815.0, -2491083.5625, -3093845.8125, -4500000.375, -4500000.375, -4500000.375, -4500000.375, -4500000.375, -4500000.375, -4500000.375, -4500000.375, 0.07300000265240669, 0.9860000610351562, 0.2160000130534172, 192.0, 0.0, 0.0, 0.0, 0.0, 0.0, 0.0, 0.0, 0.0, 0.0, 1.6298540360174181E9, 2021-08-24 19:13:56.017
116.0, -1714339.3125, -2360261.4375, -3611722.5, -4500000.375, -4500000.375, -3236901.0, -2478591.9375, -3092000.4375, -4500000.375, -4500000.375, -4500000.375, -4500000.375, -4500000.375, -4500000.375, -4500000.375, -4500000.375, 0.07300000265240669, 0.9860000610351562, 0.2160000130534172, 192.0, 0.0, 0.0, 0.0, 0.0, 0.0, 0.0, 0.0, 0.0, 0.0, 1.6298540360174248E9, 2021-08-24 19:13:56.017
118.0, -1711812.1875, -2356486.125, -3610950.0, -4500000.375, -4500000.375, -3239011.875, -2488536.5625, -3093610.3125, -4500000.375, -4500000.375, -4500000.375, -4500000.375, -4500000.375, -4500000.375, -4500000.375, -4500000.375, 0.07300000265240669, 0.9860000610351562, 0.2160000130534172, 192.0, 0.0, 0.0, 0.0, 0.0, 0.0, 0.0, 0.0, 0.0, 0.0, 1.6298540360174313E9, 2021-08-24 19:13:56.017
120.0, -1716435.1875, -2363287.125, -3611616.375, -4500000.375, -4500000.375, -3237299.25, -2481454.5, -3092497.125, -4500000.375, -4500000.375, -4500000.375, -4500000.375, -4500000.375, -4500000.375, -4500000.375, -4500000.375, 0.07300000265240669, 0.9860000610351562, 0.2160000130534172, 192.0, 0.0, 0.0, 0.0, 0.0, 0.0, 0.0, 0.0, 0.0, 0.0, 1.629854036017438E9, 2021-08-24 19:13:56.017
122.0, -1709906.25, -2353310.25, -3610847.625, -4500000.375, -4500000.375, -3238547.625, -2485300.6875, -3093371.4375, -4500000.375, -4500000.375, -4500000.375, -4500000.375, -4500000.375, -4500000.375, -4500000.375, -4500000.375, 0.07150000147521496, 0.9900000393390656, 0.21700001135468483, 192.0, 1.0, 24.0, 15.5, 8.0, 3.0, 104.0, 0.0, 0.0, 0.0, 1.6298540360174448E9, 2021-08-24 19:13:56.017
124.0, -1718542.5, -2365896.75, -3610745.625, -4500000.375, -4500000.375, -3236898.75, -2483960.25, -3092502.5625, -4500000.375, -4500000.375, -4500000.375, -4500000.375, -4500000.375, -4500000.375, -4500000.375, -4500000.375, 0.07150000147521496, 0.9900000393390656, 0.21700001135468483, 192.0, 0.0, 0.0, 0.0, 0.0, 0.0, 0.0, 0.0, 0.0, 0.0, 1.6298540360174513E9, 2021-08-24 19:13:56.017
126.0, -1708614.0, -2350625.4375, -3610976.25, -4500000.375, -4500000.375, -3238324.5, -2481790.3125, -3093012.5625, -4500000.375, -4500000.375, -4500000.375, -4500000.375, -4500000.375, -4500000.375, -4500000.375, -4500000.375, 0.07150000147521496, 0.9900000393390656, 0.21700001135468483, 192.0, 0.0, 0.0, 0.0, 0.0, 0.0, 0.0, 0.0, 0.0, 0.0, 1.6298540360174577E9, 2021-08-24 19:13:56.017
128.0, -1720304.0625, -2368352.0625, -3610895.25, -4500000.375, -4500000.375, -3237669.0, -2487065.625, -3092917.125, -4500000.375, -4500000.375, -4500000.375, -4500000.375, -4500000.375, -4500000.375, -4500000.375, -4500000.375, 0.07150000147521496, 0.9900000393390656, 0.21700001135468483, 192.0, 0.0, 0.0, 0.0, 0.0, 0.0, 0.0, 0.0, 0.0, 0.0, 1.629854036017465E9, 2021-08-24 19:13:56.017
130.0, -1707307.125, -2348723.25, -3611412.375, -4500000.375, -4500000.375, -3238415.625, -2479047.9375, -3093103.3125, -4500000.375, -4500000.375, -4500000.375, -4500000.375, -4500000.375, -4500000.375, -4500000.375, -4500000.375, 0.07150000147521496, 0.9900000393390656, 0.21700001135468483, 192.0, 0.0, 0.0, 0.0, 0.0, 0.0, 0.0, 0.0, 0.0, 0.0, 1.629854036017472E9, 2021-08-24 19:13:56.017
132.0, -1721226.75, -2370382.5, -3611099.625, -4500000.375, -4500000.375, -3238532.625, -2490294.9375, -3093414.375, -4500000.375, -4500000.375, -4500000.375, -4500000.375, -4500000.375, -4500000.375, -4500000.375, -4500000.375, 0.06175000127404928, 0.9990000277757645, 0.2155000139027834, 192.0, 0.5, 80.0, 15.5, 64.0, 3.0, 88.0, 0.0, 0.0, 0.0, 1.6298540360174785E9, 2021-08-24 19:13:56.017
134.0, -1706472.0, -2347660.5, -3611736.0, -4500000.375, -4500000.375, -3238344.375, -2476729.5, -3092763.1875, -4500000.375, -4500000.375, -4500000.375, -4500000.375, -4500000.375, -4500000.375, -4500000.375, -4500000.375, 0.06175000127404928, 0.9990000277757645, 0.2155000139027834, 192.0, 0.0, 0.0, 0.0, 0.0, 0.0, 0.0, 0.0, 0.0, 0.0, 1.6298540360174928E9, 2021-08-24 19:13:56.017
136.0, -1721940.75, -2371608.375, -3610820.625, -4500000.375, -4500000.375, -3238663.125, -2492975.0625, -3093475.6875, -4500000.375, -4500000.375, -4500000.375, -4500000.375, -4500000.375, -4500000.375, -4500000.375, -4500000.375, 0.06175000127404928, 0.9990000277757645, 0.2155000139027834, 192.0, 0.0, 0.0, 0.0, 0.0, 0.0, 0.0, 0.0, 0.0, 0.0, 1.6298540360174997E9, 2021-08-24 19:13:56.017
138.0, -1705863.5625, -2346901.5, -3611832.75, -4500000.375, -4500000.375, -3237784.5, -2474645.4375, -3092161.3125, -4500000.375, -4500000.375, -4500000.375, -4500000.375, -4500000.375, -4500000.375, -4500000.375, -4500000.375, 0.06175000127404928, 0.9990000277757645, 0.2155000139027834, 192.0, 0.0, 0.0, 0.0, 0.0, 0.0, 0.0, 0.0, 0.0, 0.0, 1.629854036017506E9, 2021-08-24 19:13:56.017
140.0, -1722090.0, -2371791.1875, -3610674.75, -4500000.375, -4500000.375, -3238651.125, -2494710.5625, -3093793.6875, -4500000.375, -4500000.375, -4500000.375, -4500000.375, -4500000.375, -4500000.375, -4500000.375, -4500000.375, 0.06175000127404928, 0.9990000277757645, 0.2155000139027834, 192.0, 0.0, 0.0, 0.0, 0.0, 0.0, 0.0, 0.0, 0.0, 0.0, 1.6298540360175126E9, 2021-08-24 19:13:56.017
142.0, -1706057.8125, -2347065.5625, -3612151.125, -4500000.375, -4500000.375, -3237539.625, -2473242.0, -3092511.0, -4500000.375, -4500000.375, -4500000.375, -4500000.375, -4500000.375, -4500000.375, -4500000.375, -4500000.375, 0.04587500123307109, 1.0045000091195107, 0.21575000975281, 192.0, 0.0, 120.0, 15.5, 72.0, 3.0, 96.0, 0.0, 0.0, 0.0, 1.6298540360175197E9, 2021-08-24 19:13:56.017
144.0, -1721720.8125, -2371112.0625, -3611028.375, -4500000.375, -4500000.375, -3239272.875, -2496321.375, -3094224.9375, -4500000.375, -4500000.375, -4500000.375, -4500000.375, -4500000.375, -4500000.375, -4500000.375, -4500000.375, 0.04587500123307109, 1.0045000091195107, 0.21575000975281, 192.0, 0.0, 0.0, 0.0, 0.0, 0.0, 0.0, 0.0, 0.0, 0.0, 1.6298540360175264E9, 2021-08-24 19:13:56.017
146.0, -1706849.0625, -2348252.8125, -3612068.25, -4500000.375, -4500000.375, -3236963.625, -2472679.3125, -3091763.25, -4500000.375, -4500000.375, -4500000.375, -4500000.375, -4500000.375, -4500000.375, -4500000.375, -4500000.375, 0.04587500123307109, 1.0045000091195107, 0.21575000975281, 192.0, 0.0, 0.0, 0.0, 0.0, 0.0, 0.0, 0.0, 0.0, 0.0, 1.629854036017533E9, 2021-08-24 19:13:56.017
148.0, -1720646.8125, -2370032.8125, -3610681.875, -4500000.375, -4500000.375, -3238988.625, -2496860.625, -3093616.125, -4500000.375, -4500000.375, -4500000.375, -4500000.375, -4500000.375, -4500000.375, -4500000.375, -4500000.375, 0.04587500123307109, 1.0045000091195107, 0.21575000975281, 192.0, 0.0, 0.0, 0.0, 0.0, 0.0, 0.0, 0.0, 0.0, 0.0, 1.6298540360175395E9, 2021-08-24 19:13:56.017
150.0, -1707771.1875, -2350007.4375, -3612465.375, -4500000.375, -4500000.375, -3237076.875, -2473267.875, -3091915.6875, -4500000.375, -4500000.375, -4500000.375, -4500000.375, -4500000.375, -4500000.375, -4500000.375, -4500000.375, 0.04587500123307109, 1.0045000091195107, 0.21575000975281, 192.0, 0.0, 0.0, 0.0, 0.0, 0.0, 0.0, 0.0, 0.0, 0.0, 1.629854036017546E9, 2021-08-24 19:13:56.017
152.0, -1719168.9375, -2367968.625, -3610902.375, -4500000.375, -4500000.375, -3239176.5, -2497055.8125, -3093986.8125, -4500000.375, -4500000.375, -4500000.375, -4500000.375, -4500000.375, -4500000.375, -4500000.375, -4500000.375, 0.020000001415610313, 1.00600004196167, 0.22800001502037048, 192.0, 0.0, 80.0, 15.5, 56.0, 3.5, 16.0, 0.0, 0.0, 0.0, 1.6298540360175533E9, 2021-08-24 19:13:56.017
154.0, -1709228.25, -2352303.375, -3612034.5, -4500000.375, -4500000.375, -3236380.5, -2474314.875, -3091426.3125, -4500000.375, -4500000.375, -4500000.375, -4500000.375, -4500000.375, -4500000.375, -4500000.375, -4500000.375, 0.020000001415610313, 1.00600004196167, 0.22800001502037048, 192.0, 0.0, 0.0, 0.0, 0.0, 0.0, 0.0, 0.0, 0.0, 0.0, 1.62985403601756E9, 2021-08-24 19:13:56.017
156.0, -1717791.9375, -2365464.375, -3610835.25, -4500000.375, -4500000.375, -3238857.75, -2496252.75, -3094047.9375, -4500000.375, -4500000.375, -4500000.375, -4500000.375, -4500000.375, -4500000.375, -4500000.375, -4500000.375, 0.020000001415610313, 1.00600004196167, 0.22800001502037048, 192.0, 0.0, 0.0, 0.0, 0.0, 0.0, 0.0, 0.0, 0.0, 0.0, 1.6298540360175667E9, 2021-08-24 19:13:56.017
158.0, -1711368.5625, -2355210.375, -3612182.625, -4500000.375, -4500000.375, -3236224.875, -2476361.4375, -3091707.0, -4500000.375, -4500000.375, -4500000.375, -4500000.375, -4500000.375, -4500000.375, -4500000.375, -4500000.375, 0.020000001415610313, 1.00600004196167, 0.22800001502037048, 192.0, 0.0, 0.0, 0.0, 0.0, 0.0, 0.0, 0.0, 0.0, 0.0, 1.629854036017573E9, 2021-08-24 19:13:56.017
160.0, -1715663.25, -2362493.625, -3611187.75, -4500000.375, -4500000.375, -3238724.625, -2495038.6875, -3093828.5625, -4500000.375, -4500000.375, -4500000.375, -4500000.375, -4500000.375, -4500000.375, -4500000.375, -4500000.375, 0.020000001415610313, 1.00600004196167, 0.22800001502037048, 192.0, 0.0, 0.0, 0.0, 0.0, 0.0, 0.0, 0.0, 0.0, 0.0, 1.62985403601758E9, 2021-08-24 19:13:56.017
162.0, -1713402.75, -2358501.9375, -3611953.125, -4500000.375, -4500000.375, -3236193.75, -2479132.125, -3092095.3125, -4500000.375, -4500000.375, -4500000.375, -4500000.375, -4500000.375, -4500000.375, -4500000.375, -4500000.375, 0.024000000208616257, 0.9880000352859497, 0.24400001764297485, 192.0, 0.0, 96.0, 15.0, 112.0, 3.5, 80.0, 0.0, 0.0, 0.0, 1.6298540360175865E9, 2021-08-24 19:13:56.017
164.0, -1713792.1875, -2359440.1875, -3611299.875, -4500000.375, -4500000.375, -3238583.25, -2493206.25, -3093417.1875, -4500000.375, -4500000.375, -4500000.375, -4500000.375, -4500000.375, -4500000.375, -4500000.375, -4500000.375, 0.024000000208616257, 0.9880000352859497, 0.24400001764297485, 192.0, 0.0, 0.0, 0.0, 0.0, 0.0, 0.0, 0.0, 0.0, 0.0, 1.6298540360175931E9, 2021-08-24 19:13:56.017
166.0, -1715457.375, -2361492.5625, -3612253.5, -4500000.375, -4500000.375, -3236604.0, -2482242.5625, -3092328.1875, -4500000.375, -4500000.375, -4500000.375, -4500000.375, -4500000.375, -4500000.375, -4500000.375, -4500000.375, 0.024000000208616257, 0.9880000352859497, 0.24400001764297485, 192.0, 0.0, 0.0, 0.0, 0.0, 0.0, 0.0, 0.0, 0.0, 0.0, 1.6298540360175996E9, 2021-08-24 19:13:56.017
168.0, -1712021.4375, -2356273.6875, -3611316.375, -4500000.375, -4500000.375, -3238226.25, -2490733.3125, -3093639.1875, -4500000.375, -4500000.375, -4500000.375, -4500000.375, -4500000.375, -4500000.375, -4500000.375, -4500000.375, 0.024000000208616257, 0.9880000352859497, 0.24400001764297485, 192.0, 0.0, 0.0, 0.0, 0.0, 0.0, 0.0, 0.0, 0.0, 0.0, 1.6298540360176163E9, 2021-08-24 19:13:56.017
170.0, -1717637.4375, -2364569.0625, -3611965.875, -4500000.375, -4500000.375, -3236560.125, -2485477.3125, -3092624.25, -4500000.375, -4500000.375, -4500000.375, -4500000.375, -4500000.375, -4500000.375, -4500000.375, -4500000.375, 0.024000000208616257, 0.9880000352859497, 0.24400001764297485, 192.0, 0.0, 0.0, 0.0, 0.0, 0.0, 0.0, 0.0, 0.0, 0.0, 1.6298540360176227E9, 2021-08-24 19:13:56.017
172.0, -1709941.125, -2353332.375, -3611521.875, -4500000.375, -4500000.375, -3237847.5, -2487909.0, -3093443.4375, -4500000.375, -4500000.375, -4500000.375, -4500000.375, -4500000.375, -4500000.375, -4500000.375, -4500000.375, 0.024000000208616257, 0.9740000367164612, 0.26600000262260437, 192.0, 0.0, 96.0, 15.0, 56.0, 4.0, 40.0, 0.0, 0.0, 0.0, 1.6298540360176291E9, 2021-08-24 19:13:56.017
174.0, -1719501.5625, -2367533.0625, -3611616.375, -4500000.375, -4500000.375, -3236582.25, -2488745.25, -3093072.75, -4500000.375, -4500000.375, -4500000.375, -4500000.375, -4500000.375, -4500000.375, -4500000.375, -4500000.375, 0.024000000208616257, 0.9740000367164612, 0.26600000262260437, 192.0, 0.0, 0.0, 0.0, 0.0, 0.0, 0.0, 0.0, 0.0, 0.0, 1.629854036017636E9, 2021-08-24 19:13:56.017
176.0, -1708390.3125, -2351025.0, -3612035.625, -4500000.375, -4500000.375, -3237736.5, -2485024.5, -3093581.25, -4500000.375, -4500000.375, -4500000.375, -4500000.375, -4500000.375, -4500000.375, -4500000.375, -4500000.375, 0.024000000208616257, 0.9740000367164612, 0.26600000262260437, 192.0, 0.0, 0.0, 0.0, 0.0, 0.0, 0.0, 0.0, 0.0, 0.0, 1.6298540360176425E9, 2021-08-24 19:13:56.017
178.0, -1721001.5625, -2369836.5, -3611704.125, -4500000.375, -4500000.375, -3237046.125, -2492006.25, -3093619.875, -4500000.375, -4500000.375, -4500000.375, -4500000.375, -4500000.375, -4500000.375, -4500000.375, -4500000.375, 0.024000000208616257, 0.9740000367164612, 0.26600000262260437, 192.0, 0.0, 0.0, 0.0, 0.0, 0.0, 0.0, 0.0, 0.0, 0.0, 1.629854036017649E9, 2021-08-24 19:13:56.017
180.0, -1707312.5625, -2349102.0, -3611972.25, -4500000.375, -4500000.375, -3237145.5, -2481970.5, -3092763.1875, -4500000.375, -4500000.375, -4500000.375, -4500000.375, -4500000.375, -4500000.375, -4500000.375, -4500000.375, 0.024000000208616257, 0.9740000367164612, 0.26600000262260437, 192.0, 0.0, 0.0, 0.0, 0.0, 0.0, 0.0, 0.0, 0.0, 0.0, 1.6298540360176556E9, 2021-08-24 19:13:56.017
182.0, -1721943.9375, -2371370.625, -3611373.75, -4500000.375, -4500000.375, -3237283.5, -2494716.375, -3093351.75, -4500000.375, -4500000.375, -4500000.375, -4500000.375, -4500000.375, -4500000.375, -4500000.375, -4500000.375, 0.020000001415610313, 0.9640000462532043, 0.29200002551078796, 192.0, 0.0, 80.0, 15.0, 16.0, 4.5, 16.0, 0.0, 0.0, 0.0, 1.6298540360176623E9, 2021-08-24 19:13:56.017
184.0, -1706441.8125, -2347881.5625, -3612327.375, -4500000.375, -4500000.375, -3237217.875, -2479491.5625, -3092890.875, -4500000.375, -4500000.375, -4500000.375, -4500000.375, -4500000.375, -4500000.375, -4500000.375, -4500000.375, 0.020000001415610313, 0.9640000462532043, 0.29200002551078796, 192.0, 0.0, 0.0, 0.0, 0.0, 0.0, 0.0, 0.0, 0.0, 0.0, 1.6298540360176702E9, 2021-08-24 19:13:56.017
186.0, -1722655.875, -2372165.25, -3611311.875, -4500000.375, -4500000.375, -3237670.5, -2497131.9375, -3093534.0, -4500000.375, -4500000.375, -4500000.375, -4500000.375, -4500000.375, -4500000.375, -4500000.375, -4500000.375, 0.020000001415610313, 0.9640000462532043, 0.29200002551078796, 192.0, 0.0, 0.0, 0.0, 0.0, 0.0, 0.0, 0.0, 0.0, 0.0, 1.6298540360176957E9, 2021-08-24 19:13:56.017
188.0, -1706386.125, -2347428.1875, -3612357.0, -4500000.375, -4500000.375, -3236633.625, -2477621.625, -3092539.5, -4500000.375, -4500000.375, -4500000.375, -4500000.375, -4500000.375, -4500000.375, -4500000.375, -4500000.375, 0.020000001415610313, 0.9640000462532043, 0.29200002551078796, 192.0, 0.0, 0.0, 0.0, 0.0, 0.0, 0.0, 0.0, 0.0, 0.0, 1.6298540360177245E9, 2021-08-24 19:13:56.017
190.0, -1722764.25, -2372083.125, -3611419.5, -4500000.375, -4500000.375, -3238246.125, -2499207.9375, -3094431.0, -4500000.375, -4500000.375, -4500000.375, -4500000.375, -4500000.375, -4500000.375, -4500000.375, -4500000.375, 0.020000001415610313, 0.9640000462532043, 0.29200002551078796, 192.0, 0.0, 0.0, 0.0, 0.0, 0.0, 0.0, 0.0, 0.0, 0.0, 1.6298540360177479E9, 2021-08-24 19:13:56.017
192.0, -1706702.625, -2347642.875, -3612724.125, -4500000.375, -4500000.375, -3236736.75, -2476654.3125, -3092600.625, -4500000.375, -4500000.375, -4500000.375, -4500000.375, -4500000.375, -4500000.375, -4500000.375, -4500000.375, 0.020000001415610313, 0.956000030040741, 0.2980000078678131, 192.0, 0.0, 80.0, 14.5, 112.0, 4.5, 40.0, 0.0, 0.0, 0.0, 1.6298540360177605E9, 2021-08-24 19:13:56.017
194.0, -1722482.0625, -2371203.375, -3611130.0, -4500000.375, -4500000.375, -3238345.5, -2500299.75, -3094332.75, -4500000.375, -4500000.375, -4500000.375, -4500000.375, -4500000.375, -4500000.375, -4500000.375, -4500000.375, 0.020000001415610313, 0.956000030040741, 0.2980000078678131, 192.0, 0.0, 0.0, 0.0, 0.0, 0.0, 0.0, 0.0, 0.0, 0.0, 1.6298540360177746E9, 2021-08-24 19:13:56.017
196.0, -1707630.75, -2348882.0625, -3612557.25, -4500000.375, -4500000.375, -3236485.5, -2476337.25, -3092388.1875, -4500000.375, -4500000.375, -4500000.375, -4500000.375, -4500000.375, -4500000.375, -4500000.375, -4500000.375, 0.020000001415610313, 0.956000030040741, 0.2980000078678131, 192.0, 0.0, 0.0, 0.0, 0.0, 0.0, 0.0, 0.0, 0.0, 0.0, 1.6298540360177872E9, 2021-08-24 19:13:56.017
198.0, -1721297.0625, -2369671.3125, -3611084.625, -4500000.375, -4500000.375, -3238713.0, -2500398.9375, -3094719.5625, -4500000.375, -4500000.375, -4500000.375, -4500000.375, -4500000.375, -4500000.375, -4500000.375, -4500000.375, 0.020000001415610313, 0.956000030040741, 0.2980000078678131, 192.0, 0.0, 0.0, 0.0, 0.0, 0.0, 0.0, 0.0, 0.0, 0.0, 1.6298540360177984E9, 2021-08-24 19:13:56.017
200.0, -1708873.125, -2350663.5, -3612762.75, -4500000.375, -4500000.375, -3236658.75, -2476469.25, -3092461.6875, -4500000.375, -4500000.375, -4500000.375, -4500000.375, -4500000.375, -4500000.375, -4500000.375, -4500000.375, 0.018000001087784767, 0.9550000429153442, 0.30000001192092896, 192.0, 0.0, 64.0, 14.5, 104.0, 4.5, 56.0, 0.0, 0.0, 0.0, 1.629854036017822E9, 2021-08-24 19:13:56.017
202.0, -1719844.875, -2367543.75, -3611156.625, -4500000.375, -4500000.375, -3238953.75, -2499696.1875, -3094870.875, -4500000.375, -4500000.375, -4500000.375, -4500000.375, -4500000.375, -4500000.375, -4500000.375, -4500000.375, 0.018000001087784767, 0.9550000429153442, 0.30000001192092896, 192.0, 0.0, 0.0, 0.0, 0.0, 0.0, 0.0, 0.0, 0.0, 0.0, 1.6298540360178308E9, 2021-08-24 19:13:56.017
204.0, -1710533.4375, -2353316.8125, -3612889.875, -4500000.375, -4500000.375, -3236935.875, -2477715.375, -3092551.3125, -4500000.375, -4500000.375, -4500000.375, -4500000.375, -4500000.375, -4500000.375, -4500000.375, -4500000.375, 0.018000001087784767, 0.9550000429153442, 0.30000001192092896, 192.0, 0.0, 0.0, 0.0, 0.0, 0.0, 0.0, 0.0, 0.0, 0.0, 1.6298540360178385E9, 2021-08-24 19:13:56.017
206.0, -1718109.5625, -2364956.4375, -3611499.75, -4500000.375, -4500000.375, -3239225.25, -2498631.375, -3094901.4375, -4500000.375, -4500000.375, -4500000.375, -4500000.375, -4500000.375, -4500000.375, -4500000.375, -4500000.375, 0.018000001087784767, 0.9550000429153442, 0.30000001192092896, 192.0, 0.0, 0.0, 0.0, 0.0, 0.0, 0.0, 0.0, 0.0, 0.0, 1.6298540360178592E9, 2021-08-24 19:13:56.017
208.0, -1712437.125, -2356306.875, -3612918.0, -4500000.375, -4500000.375, -3236918.625, -2479328.0625, -3092416.125, -4500000.375, -4500000.375, -4500000.375, -4500000.375, -4500000.375, -4500000.375, -4500000.375, -4500000.375, 0.018000001087784767, 0.9550000429153442, 0.30000001192092896, 192.0, 0.0, 0.0, 0.0, 0.0, 0.0, 0.0, 0.0, 0.0, 0.0, 1.629854036017886E9, 2021-08-24 19:13:56.017
210.0, -1716126.375, -2361983.4375, -3611493.375, -4500000.375, -4500000.375, -3239077.875, -2496360.5625, -3094928.8125, -4500000.375, -4500000.375, -4500000.375, -4500000.375, -4500000.375, -4500000.375, -4500000.375, -4500000.375, 0.017000000923871994, 0.9595000445842743, 0.30800001323223114, 192.0, 0.0, 64.0, 15.0, 16.0, 4.5, 112.0, 0.0, 0.0, 0.0, 1.6298540360178943E9, 2021-08-24 19:13:56.017
212.0, -1714909.125, -2359488.5625, -3612576.375, -4500000.375, -4500000.375, -3236726.625, -2481296.8125, -3092959.5, -4500000.375, -4500000.375, -4500000.375, -4500000.375, -4500000.375, -4500000.375, -4500000.375, -4500000.375, 0.017000000923871994, 0.9595000445842743, 0.30800001323223114, 192.0, 0.0, 0.0, 0.0, 0.0, 0.0, 0.0, 0.0, 0.0, 0.0, 1.6298540360179029E9, 2021-08-24 19:13:56.017
214.0, -1714052.4375, -2358925.6875, -3611461.875, -4500000.375, -4500000.375, -3238797.0, -2493768.9375, -3094422.375, -4500000.375, -4500000.375, -4500000.375, -4500000.375, -4500000.375, -4500000.375, -4500000.375, -4500000.375, 0.017000000923871994, 0.9595000445842743, 0.30800001323223114, 192.0, 0.0, 0.0, 0.0, 0.0, 0.0, 0.0, 0.0, 0.0, 0.0, 1.6298540360179129E9, 2021-08-24 19:13:56.017
216.0, -1716762.0, -2362603.6875, -3612349.5, -4500000.375, -4500000.375, -3237045.75, -2483909.8125, -3093111.375, -4500000.375, -4500000.375, -4500000.375, -4500000.375, -4500000.375, -4500000.375, -4500000.375, -4500000.375, 0.017000000923871994, 0.9595000445842743, 0.30800001323223114, 192.0, 0.0, 0.0, 0.0, 0.0, 0.0, 0.0, 0.0, 0.0, 0.0, 1.6298540360179205E9, 2021-08-24 19:13:56.017
218.0, -1712160.375, -2355682.5, -3611692.875, -4500000.375, -4500000.375, -3238831.125, -2490846.5625, -3094635.375, -4500000.375, -4500000.375, -4500000.375, -4500000.375, -4500000.375, -4500000.375, -4500000.375, -4500000.375, 0.017000000923871994, 0.9595000445842743, 0.30800001323223114, 192.0, 0.0, 0.0, 0.0, 0.0, 0.0, 0.0, 0.0, 0.0, 0.0, 1.6298540360179276E9, 2021-08-24 19:13:56.017
220.0, -1719024.1875, -2365550.25, -3612334.5, -4500000.375, -4500000.375, -3237412.5, -2487171.375, -3093492.75, -4500000.375, -4500000.375, -4500000.375, -4500000.375, -4500000.375, -4500000.375, -4500000.375, -4500000.375, 0.012500000651925802, 0.9607500582933426, 0.31200001388788223, 192.0, 0.0, 32.0, 15.0, 8.0, 4.5, 112.0, 0.0, 0.0, 0.0, 1.629854036017943E9, 2021-08-24 19:13:56.017
222.0, -1709946.0, -2352821.0625, -3612139.875, -4500000.375, -4500000.375, -3238870.125, -2487957.75, -3093968.625, -4500000.375, -4500000.375, -4500000.375, -4500000.375, -4500000.375, -4500000.375, -4500000.375, -4500000.375, 0.012500000651925802, 0.9607500582933426, 0.31200001388788223, 192.0, 0.0, 0.0, 0.0, 0.0, 0.0, 0.0, 0.0, 0.0, 0.0, 1.6298540360179548E9, 2021-08-24 19:13:56.017
224.0, -1720550.8125, -2368216.5, -3612084.0, -4500000.375, -4500000.375, -3237703.875, -2490435.5625, -3093751.3125, -4500000.375, -4500000.375, -4500000.375, -4500000.375, -4500000.375, -4500000.375, -4500000.375, -4500000.375, 0.012500000651925802, 0.9607500582933426, 0.31200001388788223, 192.0, 0.0, 0.0, 0.0, 0.0, 0.0, 0.0, 0.0, 0.0, 0.0, 1.6298540364987183E9, 2021-08-24 19:13:56.498
226.0, -1708474.5, -2350436.625, -3612365.625, -4500000.375, -4500000.375, -3238618.875, -2484775.5, -3094240.5, -4500000.375, -4500000.375, -4500000.375, -4500000.375, -4500000.375, -4500000.375, -4500000.375, -4500000.375, 0.012500000651925802, 0.9607500582933426, 0.31200001388788223, 192.0, 0.0, 0.0, 0.0, 0.0, 0.0, 0.0, 0.0, 0.0, 0.0, 1.6298540364989524E9, 2021-08-24 19:13:56.498
228.0, -1721578.125, -2370164.8125, -3612068.25, -4500000.375, -4500000.375, -3238254.75, -2493626.25, -3094323.75, -4500000.375, -4500000.375, -4500000.375, -4500000.375, -4500000.375, -4500000.375, -4500000.375, -4500000.375, 0.012500000651925802, 0.9607500582933426, 0.31200001388788223, 192.0, 0.0, 0.0, 0.0, 0.0, 0.0, 0.0, 0.0, 0.0, 0.0, 1.629854036498984E9, 2021-08-24 19:13:56.498
230.0, -1707127.5, -2348590.125, -3612074.25, -4500000.375, -4500000.375, -3237880.875, -2481973.125, -3093402.5625, -4500000.375, -4500000.375, -4500000.375, -4500000.375, -4500000.375, -4500000.375, -4500000.375, -4500000.375, 0.009250000352039933, 0.9593750610947609, 0.31200001016259193, 192.0, 0.0, 24.0, 14.5, 120.0, 4.5, 96.0, 0.0, 0.0, 0.0, 1.6298540364990075E9, 2021-08-24 19:13:56.499
