%OpenBCI Raw EEG Data
%Number of channels = 16
%Sample Rate = 125 Hz
%Board = OpenBCI_GUI$BoardCytonSerialDaisy
Sample Index, EXG Channel 0, EXG Channel 1, EXG Channel 2, EXG Channel 3, EXG Channel 4, EXG Channel 5, EXG Channel 6, EXG Channel 7, EXG Channel 8, EXG Channel 9, EXG Channel 10, EXG Channel 11, EXG Channel 12, EXG Channel 13, EXG Channel 14, EXG Channel 15, Accel Channel 0, Accel Channel 1, Accel Channel 2, Other, Other, Other, Other, Other, Other, Other, Analog Channel 0, Analog Channel 1, Analog Channel 2, Timestamp, Timestamp (Formatted)
0.0, -1234846.78125, 4500000.0, -2078428.875, 4500000.0, 4500000.0, -1706787.9375, 4500000.0, -1161864.375, 0.0, 0.0, 0.0, 0.0, 0.0, 0.0, 0.0, 0.0, 0.0, 0.0, 0.0, 192.0, 0.0, 0.0, 0.0, 0.0, 0.0, 0.0, 0.0, 0.0, 0.0, 1.629243617003003E9, 2021-08-17 17:40:17.003
108.0, -1234885.40625, 4500000.0, -2080374.0, 4500000.0, 4500000.0, -1708963.6875, 4500000.0, -1162237.78125, 4500000.0, 4500000.0, 4500000.0, 4500000.0, 4500000.0, 4500000.0, -4500000.375, 4500000.0, 0.0, 0.0, 0.0, 192.0, 0.0, 0.0, 0.0, 0.0, 0.0, 0.0, 0.0, 0.0, 0.0, 1.6292436170030105E9, 2021-08-17 17:40:17.003
110.0, -1235552.71875, 4500000.0, -2078180.0625, 4500000.0, 4500000.0, -1706735.25, 4500000.0, -1162014.5625, 4500000.0, 4500000.0, 4500000.0, 4500000.0, 4500000.0, 4500000.0, -4500000.375, 4500000.0, 0.0, 0.0, 0.0, 192.0, 0.0, 0.0, 0.0, 0.0, 0.0, 0.0, 0.0, 0.0, 0.0, 1.6292436170030177E9, 2021-08-17 17:40:17.003
112.0, -1234575.84375, 4500000.0, -2081114.4375, 4500000.0, 4500000.0, -1708954.6875, 4500000.0, -1161936.84375, 4500000.0, 4500000.0, 4500000.0, 4500000.0, 4500000.0, 4500000.0, -4500000.375, 4500000.0, -0.021000001579523087, 0.46700000762939453, 0.2110000103712082, 192.0, 127.0, 88.0, 14.5, 24.0, 6.5, 24.0, 0.0, 0.0, 0.0, 1.6292436170030243E9, 2021-08-17 17:40:17.003
114.0, -1235941.59375, 4500000.0, -2077996.5, 4500000.0, 4500000.0, -1706933.8125, 4500000.0, -1162853.53125, 4500000.0, 4500000.0, 4500000.0, 4500000.0, 4500000.0, 4500000.0, -4500000.375, 4500000.0, -0.021000001579523087, 0.46700000762939453, 0.2110000103712082, 192.0, 0.0, 0.0, 0.0, 0.0, 0.0, 0.0, 0.0, 0.0, 0.0, 1.6292436170030315E9, 2021-08-17 17:40:17.003
116.0, -1234060.3125, 4500000.0, -2081091.75, 4500000.0, 4500000.0, -1708283.0625, 4500000.0, -1161293.0625, 4500000.0, 4500000.0, 4500000.0, 4500000.0, 4500000.0, 4500000.0, -4500000.375, 4500000.0, -0.021000001579523087, 0.46700000762939453, 0.2110000103712082, 192.0, 0.0, 0.0, 0.0, 0.0, 0.0, 0.0, 0.0, 0.0, 0.0, 1.629243617003039E9, 2021-08-17 17:40:17.003
118.0, -1237274.71875, 4500000.0, -2078487.375, 4500000.0, 4500000.0, -1707804.375, 4500000.0, -1163805.1875, 4500000.0, 4500000.0, 4500000.0, 4500000.0, 4500000.0, 4500000.0, -4500000.375, 4500000.0, -0.021000001579523087, 0.46700000762939453, 0.2110000103712082, 192.0, 0.0, 0.0, 0.0, 0.0, 0.0, 0.0, 0.0, 0.0, 0.0, 1.629243617003046E9, 2021-08-17 17:40:17.003
120.0, -1233745.40625, 4500000.0, -2081273.625, 4500000.0, 4500000.0, -1708287.75, 4500000.0, -1161484.03125, 4500000.0, 4500000.0, 4500000.0, 4500000.0, 4500000.0, 4500000.0, -4500000.375, 4500000.0, -0.021000001579523087, 0.46700000762939453, 0.2110000103712082, 192.0, 0.0, 0.0, 0.0, 0.0, 0.0, 0.0, 0.0, 0.0, 0.0, 1.629243617003053E9, 2021-08-17 17:40:17.003
122.0, -1237022.53125, 4500000.0, -2077794.375, 4500000.0, 4500000.0, -1707657.5625, 4500000.0, -1163604.09375, 4500000.0, 4500000.0, 4500000.0, 4500000.0, 4500000.0, 4500000.0, -4500000.375, 4500000.0, -0.0345000009983778, 0.6945000290870667, 0.3135000094771385, 192.0, 127.0, 64.0, 14.0, 104.0, 6.5, 0.0, 0.0, 0.0, 0.0, 1.62924361700306E9, 2021-08-17 17:40:17.003
124.0, -1233714.84375, 4500000.0, -2081279.0625, 4500000.0, 4500000.0, -1708104.9375, 4500000.0, -1161388.59375, 4500000.0, 4500000.0, 4500000.0, 4500000.0, 4500000.0, 4500000.0, -4500000.375, 4500000.0, -0.0345000009983778, 0.6945000290870667, 0.3135000094771385, 192.0, 0.0, 0.0, 0.0, 0.0, 0.0, 0.0, 0.0, 0.0, 0.0, 1.629243617003067E9, 2021-08-17 17:40:17.003
126.0, -1237287.5625, 4500000.0, -2078197.6875, 4500000.0, 4500000.0, -1708280.8125, 4500000.0, -1164098.625, 4500000.0, 4500000.0, 4500000.0, 4500000.0, 4500000.0, 4500000.0, -4500000.375, 4500000.0, -0.0345000009983778, 0.6945000290870667, 0.3135000094771385, 192.0, 0.0, 0.0, 0.0, 0.0, 0.0, 0.0, 0.0, 0.0, 0.0, 1.629243617003074E9, 2021-08-17 17:40:17.003
128.0, -1232916.09375, 4500000.0, -2081214.1875, 4500000.0, 4500000.0, -1707678.375, 4500000.0, -1160922.375, 4500000.0, 4500000.0, 4500000.0, 4500000.0, 4500000.0, 4500000.0, -4500000.375, 4500000.0, -0.0345000009983778, 0.6945000290870667, 0.3135000094771385, 192.0, 0.0, 0.0, 0.0, 0.0, 0.0, 0.0, 0.0, 0.0, 0.0, 1.629243617003081E9, 2021-08-17 17:40:17.003
130.0, -1237794.46875, 4500000.0, -2078383.3125, 4500000.0, 4500000.0, -1708546.3125, 4500000.0, -1164423.1875, 4500000.0, 4500000.0, 4500000.0, 4500000.0, 4500000.0, 4500000.0, -4500000.375, 4500000.0, -0.0345000009983778, 0.6945000290870667, 0.3135000094771385, 192.0, 0.0, 0.0, 0.0, 0.0, 0.0, 0.0, 0.0, 0.0, 0.0, 1.629243617003088E9, 2021-08-17 17:40:17.003
132.0, -1233132.28125, 4500000.0, -2080725.9375, 4500000.0, 4500000.0, -1707076.5, 4500000.0, -1160682.09375, 4500000.0, 4500000.0, 4500000.0, 4500000.0, 4500000.0, 4500000.0, -4500000.375, 4500000.0, -0.03825000207871199, 0.8082500398159027, 0.3607500158250332, 192.0, 127.0, 88.0, 14.0, 104.0, 6.0, 96.0, 0.0, 0.0, 0.0, 1.629243617003095E9, 2021-08-17 17:40:17.003
134.0, -1238283.1875, 4500000.0, -2078839.875, 4500000.0, 4500000.0, -1708744.875, 4500000.0, -1164704.34375, 4500000.0, 4500000.0, 4500000.0, 4500000.0, 4500000.0, 4500000.0, -4500000.375, 4500000.0, -0.03825000207871199, 0.8082500398159027, 0.3607500158250332, 192.0, 0.0, 0.0, 0.0, 0.0, 0.0, 0.0, 0.0, 0.0, 0.0, 1.629243617003102E9, 2021-08-17 17:40:17.003
136.0, -1233248.15625, 4500000.0, -2080647.1875, 4500000.0, 4500000.0, -1706690.25, 4500000.0, -1160975.53125, 4500000.0, 4500000.0, 4500000.0, 4500000.0, 4500000.0, 4500000.0, -4500000.375, 4500000.0, -0.03825000207871199, 0.8082500398159027, 0.3607500158250332, 192.0, 0.0, 0.0, 0.0, 0.0, 0.0, 0.0, 0.0, 0.0, 0.0, 1.629243617003109E9, 2021-08-17 17:40:17.003
138.0, -1237790.25, 4500000.0, -2079168.1875, 4500000.0, 4500000.0, -1708776.5625, 4500000.0, -1164394.78125, 4500000.0, 4500000.0, 4500000.0, 4500000.0, 4500000.0, 4500000.0, -4500000.375, 4500000.0, -0.03825000207871199, 0.8082500398159027, 0.3607500158250332, 192.0, 0.0, 0.0, 0.0, 0.0, 0.0, 0.0, 0.0, 0.0, 0.0, 1.6292436170031164E9, 2021-08-17 17:40:17.003
140.0, -1233249.75, 4500000.0, -2080223.25, 4500000.0, 4500000.0, -1706335.6875, 4500000.0, -1161000.1875, 4500000.0, 4500000.0, 4500000.0, 4500000.0, 4500000.0, 4500000.0, -4500000.375, 4500000.0, -0.03825000207871199, 0.8082500398159027, 0.3607500158250332, 192.0, 0.0, 0.0, 0.0, 0.0, 0.0, 0.0, 0.0, 0.0, 0.0, 1.6292436170031276E9, 2021-08-17 17:40:17.003
142.0, -1237254.84375, 4500000.0, -2079289.3125, 4500000.0, 4500000.0, -1708623.5625, 4500000.0, -1164140.53125, 4500000.0, 4500000.0, 4500000.0, 4500000.0, 4500000.0, 4500000.0, -4500000.375, 4500000.0, -0.032125001307576895, 0.8681250363588333, 0.3873750250786543, 192.0, 127.5, 24.0, 14.5, 0.0, 6.0, 120.0, 0.0, 0.0, 0.0, 1.6292436170031345E9, 2021-08-17 17:40:17.003
144.0, -1233559.875, 4500000.0, -2079392.8125, 4500000.0, 4500000.0, -1705620.0, 4500000.0, -1160757.1875, 4500000.0, 4500000.0, 4500000.0, 4500000.0, 4500000.0, 4500000.0, -4500000.375, 4500000.0, -0.032125001307576895, 0.8681250363588333, 0.3873750250786543, 192.0, 0.0, 0.0, 0.0, 0.0, 0.0, 0.0, 0.0, 0.0, 0.0, 1.6292436170031416E9, 2021-08-17 17:40:17.003
146.0, -1237406.625, 4500000.0, -2079983.4375, 4500000.0, 4500000.0, -1708884.375, 4500000.0, -1163825.0625, 4500000.0, 4500000.0, 4500000.0, 4500000.0, 4500000.0, 4500000.0, -4500000.375, 4500000.0, -0.032125001307576895, 0.8681250363588333, 0.3873750250786543, 192.0, 0.0, 0.0, 0.0, 0.0, 0.0, 0.0, 0.0, 0.0, 0.0, 1.6292436170031488E9, 2021-08-17 17:40:17.003
148.0, -1235036.625, 4500000.0, -2079669.1875, 4500000.0, 4500000.0, -1706195.625, 4500000.0, -1161780.65625, 4500000.0, 4500000.0, 4500000.0, 4500000.0, 4500000.0, 4500000.0, -4500000.375, 4500000.0, -0.032125001307576895, 0.8681250363588333, 0.3873750250786543, 192.0, 0.0, 0.0, 0.0, 0.0, 0.0, 0.0, 0.0, 0.0, 0.0, 1.629243617003156E9, 2021-08-17 17:40:17.003
150.0, -1236808.03125, 4500000.0, -2080171.3125, 4500000.0, 4500000.0, -1708659.0, 4500000.0, -1163348.71875, 4500000.0, 4500000.0, 4500000.0, 4500000.0, 4500000.0, 4500000.0, -4500000.375, 4500000.0, -0.032125001307576895, 0.8681250363588333, 0.3873750250786543, 192.0, 0.0, 0.0, 0.0, 0.0, 0.0, 0.0, 0.0, 0.0, 0.0, 1.629243617003163E9, 2021-08-17 17:40:17.003
152.0, -1234827.46875, 4500000.0, -2078785.125, 4500000.0, 4500000.0, -1705930.6875, 4500000.0, -1161855.28125, 4500000.0, 4500000.0, 4500000.0, 4500000.0, 4500000.0, 4500000.0, -4500000.375, 4500000.0, -0.01600000075995922, 0.9220000505447388, 0.41200003027915955, 192.0, 127.5, 64.0, 14.0, 104.0, 6.0, 112.0, 0.0, 0.0, 0.0, 1.6292436170031705E9, 2021-08-17 17:40:17.003
154.0, -1236394.96875, 4500000.0, -2080618.6875, 4500000.0, 4500000.0, -1708821.5625, 4500000.0, -1163160.375, 4500000.0, 4500000.0, 4500000.0, 4500000.0, 4500000.0, 4500000.0, -4500000.375, 4500000.0, -0.01600000075995922, 0.9220000505447388, 0.41200003027915955, 192.0, 0.0, 0.0, 0.0, 0.0, 0.0, 0.0, 0.0, 0.0, 0.0, 1.6292436170031772E9, 2021-08-17 17:40:17.003
156.0, -1235791.96875, 4500000.0, -2078491.125, 4500000.0, 4500000.0, -1706140.5, 4500000.0, -1162267.78125, 4500000.0, 4500000.0, 4500000.0, 4500000.0, 4500000.0, 4500000.0, -4500000.375, 4500000.0, -0.01600000075995922, 0.9220000505447388, 0.41200003027915955, 192.0, 0.0, 0.0, 0.0, 0.0, 0.0, 0.0, 0.0, 0.0, 0.0, 1.6292436170031843E9, 2021-08-17 17:40:17.003
158.0, -1235752.3125, 4500000.0, -2081432.4375, 4500000.0, 4500000.0, -1709049.5625, 4500000.0, -1162573.59375, 4500000.0, 4500000.0, 4500000.0, 4500000.0, 4500000.0, 4500000.0, -4500000.375, 4500000.0, -0.01600000075995922, 0.9220000505447388, 0.41200003027915955, 192.0, 0.0, 0.0, 0.0, 0.0, 0.0, 0.0, 0.0, 0.0, 0.0, 1.629243617003193E9, 2021-08-17 17:40:17.003
160.0, -1236296.25, 4500000.0, -2078605.875, 4500000.0, 4500000.0, -1706634.5625, 4500000.0, -1162735.03125, 4500000.0, 4500000.0, 4500000.0, 4500000.0, 4500000.0, 4500000.0, -4500000.375, 4500000.0, -0.01600000075995922, 0.9220000505447388, 0.41200003027915955, 192.0, 0.0, 0.0, 0.0, 0.0, 0.0, 0.0, 0.0, 0.0, 0.0, 1.6292436170032003E9, 2021-08-17 17:40:17.003
162.0, -1235203.5, 4500000.0, -2081428.125, 4500000.0, 4500000.0, -1708433.25, 4500000.0, -1162111.125, 4500000.0, 4500000.0, 4500000.0, 4500000.0, 4500000.0, 4500000.0, -4500000.375, 4500000.0, -0.012000000104308128, 0.9360000491142273, 0.4140000343322754, 192.0, 127.5, 80.0, 14.5, 32.0, 6.0, 120.0, 0.0, 0.0, 0.0, 1.6292436170032077E9, 2021-08-17 17:40:17.003
164.0, -1237141.125, 4500000.0, -2078847.375, 4500000.0, 4500000.0, -1707064.125, 4500000.0, -1163461.875, 4500000.0, 4500000.0, 4500000.0, 4500000.0, 4500000.0, 4500000.0, -4500000.375, 4500000.0, -0.012000000104308128, 0.9360000491142273, 0.4140000343322754, 192.0, 0.0, 0.0, 0.0, 0.0, 0.0, 0.0, 0.0, 0.0, 0.0, 1.6292436170032148E9, 2021-08-17 17:40:17.003
166.0, -1234674.5625, 4500000.0, -2081990.4375, 4500000.0, 4500000.0, -1708287.1875, 4500000.0, -1161875.0625, 4500000.0, 4500000.0, 4500000.0, 4500000.0, 4500000.0, 4500000.0, -4500000.375, 4500000.0, -0.012000000104308128, 0.9360000491142273, 0.4140000343322754, 192.0, 0.0, 0.0, 0.0, 0.0, 0.0, 0.0, 0.0, 0.0, 0.0, 1.6292436170032222E9, 2021-08-17 17:40:17.003
168.0, -1237608.375, 4500000.0, -2078670.375, 4500000.0, 4500000.0, -1707104.4375, 4500000.0, -1163971.03125, 4500000.0, 4500000.0, 4500000.0, 4500000.0, 4500000.0, 4500000.0, -4500000.375, 4500000.0, -0.012000000104308128, 0.9360000491142273, 0.4140000343322754, 192.0, 0.0, 0.0, 0.0, 0.0, 0.0, 0.0, 0.0, 0.0, 0.0, 1.6292436170032291E9, 2021-08-17 17:40:17.003
170.0, -1233810.84375, 4500000.0, -2081342.8125, 4500000.0, 4500000.0, -1707043.875, 4500000.0, -1160855.34375, 4500000.0, 4500000.0, 4500000.0, 4500000.0, 4500000.0, 4500000.0, -4500000.375, 4500000.0, -0.012000000104308128, 0.9360000491142273, 0.4140000343322754, 192.0, 0.0, 0.0, 0.0, 0.0, 0.0, 0.0, 0.0, 0.0, 0.0, 1.6292436170032363E9, 2021-08-17 17:40:17.003
172.0, -1238178.5625, 4500000.0, -2078857.5, 4500000.0, 4500000.0, -1707388.6875, 4500000.0, -1164304.6875, 4500000.0, 4500000.0, 4500000.0, 4500000.0, 4500000.0, 4500000.0, -4500000.375, 4500000.0, -0.004000000189989805, 0.9460000395774841, 0.42000001668930054, 192.0, 127.5, 112.0, 14.5, 72.0, 6.5, 16.0, 0.0, 0.0, 0.0, 1.6292436170032432E9, 2021-08-17 17:40:17.003
174.0, -1233921.9375, 4500000.0, -2081822.4375, 4500000.0, 4500000.0, -1706979.9375, 4500000.0, -1161271.59375, 4500000.0, 4500000.0, 4500000.0, 4500000.0, 4500000.0, 4500000.0, -4500000.375, 4500000.0, -0.004000000189989805, 0.9460000395774841, 0.42000001668930054, 192.0, 0.0, 0.0, 0.0, 0.0, 0.0, 0.0, 0.0, 0.0, 0.0, 1.6292436170032525E9, 2021-08-17 17:40:17.003
176.0, -1238586.28125, 4500000.0, -2078926.6875, 4500000.0, 4500000.0, -1707440.25, 4500000.0, -1164859.875, 4500000.0, 4500000.0, 4500000.0, 4500000.0, 4500000.0, 4500000.0, -4500000.375, 4500000.0, -0.004000000189989805, 0.9460000395774841, 0.42000001668930054, 192.0, 0.0, 0.0, 0.0, 0.0, 0.0, 0.0, 0.0, 0.0, 0.0, 1.6292436170032597E9, 2021-08-17 17:40:17.003
178.0, -1234168.125, 4500000.0, -2081618.0625, 4500000.0, 4500000.0, -1706588.4375, 4500000.0, -1161375.65625, 4500000.0, 4500000.0, 4500000.0, 4500000.0, 4500000.0, 4500000.0, -4500000.375, 4500000.0, -0.004000000189989805, 0.9460000395774841, 0.42000001668930054, 192.0, 0.0, 0.0, 0.0, 0.0, 0.0, 0.0, 0.0, 0.0, 0.0, 1.6292436170032666E9, 2021-08-17 17:40:17.003
180.0, -1238656.03125, 4500000.0, -2078967.5625, 4500000.0, 4500000.0, -1707615.1875, 4500000.0, -1164465.5625, 4500000.0, 4500000.0, 4500000.0, 4500000.0, 4500000.0, 4500000.0, -4500000.375, 4500000.0, -0.004000000189989805, 0.9460000395774841, 0.42000001668930054, 192.0, 0.0, 0.0, 0.0, 0.0, 0.0, 0.0, 0.0, 0.0, 0.0, 1.6292436170032735E9, 2021-08-17 17:40:17.003
182.0, -1233769.03125, 4500000.0, -2081195.8125, 4500000.0, 4500000.0, -1706098.125, 4500000.0, -1160819.90625, 4500000.0, 4500000.0, 4500000.0, 4500000.0, 4500000.0, 4500000.0, -4500000.375, 4500000.0, 0.012000000104308128, 0.9420000314712524, 0.4240000247955322, 192.0, 0.0, 48.0, 14.5, 56.0, 6.5, 32.0, 0.0, 0.0, 0.0, 1.6292436170032809E9, 2021-08-17 17:40:17.003
184.0, -1238918.34375, 4500000.0, -2079288.75, 4500000.0, 4500000.0, -1707984.1875, 4500000.0, -1164650.625, 4500000.0, 4500000.0, 4500000.0, 4500000.0, 4500000.0, 4500000.0, -4500000.375, 4500000.0, 0.012000000104308128, 0.9420000314712524, 0.4240000247955322, 192.0, 0.0, 0.0, 0.0, 0.0, 0.0, 0.0, 0.0, 0.0, 0.0, 1.629243617003288E9, 2021-08-17 17:40:17.003
186.0, -1234014.1875, 4500000.0, -2080825.6875, 4500000.0, 4500000.0, -1705840.5, 4500000.0, -1160924.53125, 4500000.0, 4500000.0, 4500000.0, 4500000.0, 4500000.0, 4500000.0, -4500000.375, 4500000.0, 0.012000000104308128, 0.9420000314712524, 0.4240000247955322, 192.0, 0.0, 0.0, 0.0, 0.0, 0.0, 0.0, 0.0, 0.0, 0.0, 1.629243617003295E9, 2021-08-17 17:40:17.003
188.0, -1237920.5625, 4500000.0, -2079675.5625, 4500000.0, 4500000.0, -1708179.375, 4500000.0, -1164266.53125, 4500000.0, 4500000.0, 4500000.0, 4500000.0, 4500000.0, 4500000.0, -4500000.375, 4500000.0, 0.012000000104308128, 0.9420000314712524, 0.4240000247955322, 192.0, 0.0, 0.0, 0.0, 0.0, 0.0, 0.0, 0.0, 0.0, 0.0, 1.629243617003302E9, 2021-08-17 17:40:17.003
190.0, -1233744.375, 4500000.0, -2080527.5625, 4500000.0, 4500000.0, -1705642.6875, 4500000.0, -1160785.03125, 4500000.0, 4500000.0, 4500000.0, 4500000.0, 4500000.0, 4500000.0, -4500000.375, 4500000.0, 0.012000000104308128, 0.9420000314712524, 0.4240000247955322, 192.0, 0.0, 0.0, 0.0, 0.0, 0.0, 0.0, 0.0, 0.0, 0.0, 1.6292436170033092E9, 2021-08-17 17:40:17.003
192.0, -1238421.5625, 4500000.0, -2080278.0, 4500000.0, 4500000.0, -1708512.5625, 4500000.0, -1164280.5, 4500000.0, 4500000.0, 4500000.0, 4500000.0, 4500000.0, 4500000.0, -4500000.375, 4500000.0, 0.01600000075995922, 0.9380000233650208, 0.4300000071525574, 192.0, 0.0, 64.0, 14.5, 40.0, 6.5, 56.0, 0.0, 0.0, 0.0, 1.6292436170033164E9, 2021-08-17 17:40:17.003
194.0, -1234425.09375, 4500000.0, -2080057.5, 4500000.0, 4500000.0, -1705574.4375, 4500000.0, -1161215.25, 4500000.0, 4500000.0, 4500000.0, 4500000.0, 4500000.0, 4500000.0, -4500000.375, 4500000.0, 0.01600000075995922, 0.9380000233650208, 0.4300000071525574, 192.0, 0.0, 0.0, 0.0, 0.0, 0.0, 0.0, 0.0, 0.0, 0.0, 1.6292436170033233E9, 2021-08-17 17:40:17.003
196.0, -1238095.40625, 4500000.0, -2080680.375, 4500000.0, 4500000.0, -1708697.625, 4500000.0, -1164240.84375, 4500000.0, 4500000.0, 4500000.0, 4500000.0, 4500000.0, 4500000.0, -4500000.375, 4500000.0, 0.01600000075995922, 0.9380000233650208, 0.4300000071525574, 192.0, 0.0, 0.0, 0.0, 0.0, 0.0, 0.0, 0.0, 0.0, 0.0, 1.6292436170033305E9, 2021-08-17 17:40:17.003
198.0, -1235263.59375, 4500000.0, -2079764.625, 4500000.0, 4500000.0, -1705513.3125, 4500000.0, -1161967.40625, 4500000.0, 4500000.0, 4500000.0, 4500000.0, 4500000.0, 4500000.0, -4500000.375, 4500000.0, 0.01600000075995922, 0.9380000233650208, 0.4300000071525574, 192.0, 0.0, 0.0, 0.0, 0.0, 0.0, 0.0, 0.0, 0.0, 0.0, 1.6292436170033371E9, 2021-08-17 17:40:17.003
200.0, -1237051.5, 4500000.0, -2080440.0, 4500000.0, 4500000.0, -1707766.3125, 4500000.0, -1163433.46875, 4500000.0, 4500000.0, 4500000.0, 4500000.0, 4500000.0, 4500000.0, -4500000.375, 4500000.0, 0.023000000976026058, 0.937000036239624, 0.4300000071525574, 192.0, 0.0, 120.0, 14.5, 32.0, 6.5, 56.0, 0.0, 0.0, 0.0, 1.6292436170033445E9, 2021-08-17 17:40:17.003
202.0, -1234856.90625, 4500000.0, -2078396.25, 4500000.0, 4500000.0, -1704571.3125, 4500000.0, -1161132.65625, 4500000.0, 4500000.0, 4500000.0, 4500000.0, 4500000.0, 4500000.0, -4500000.375, 4500000.0, 0.023000000976026058, 0.937000036239624, 0.4300000071525574, 192.0, 0.0, 0.0, 0.0, 0.0, 0.0, 0.0, 0.0, 0.0, 0.0, 1.6292436170033517E9, 2021-08-17 17:40:17.003
204.0, -1236548.34375, 4500000.0, -2081069.25, 4500000.0, 4500000.0, -1708091.4375, 4500000.0, -1162806.375, 4500000.0, 4500000.0, 4500000.0, 4500000.0, 4500000.0, 4500000.0, -4500000.375, 4500000.0, 0.023000000976026058, 0.937000036239624, 0.4300000071525574, 192.0, 0.0, 0.0, 0.0, 0.0, 0.0, 0.0, 0.0, 0.0, 0.0, 1.6292436170033588E9, 2021-08-17 17:40:17.003
206.0, -1236125.0625, 4500000.0, -2078381.625, 4500000.0, 4500000.0, -1705257.375, 4500000.0, -1161971.625, 4500000.0, 4500000.0, 4500000.0, 4500000.0, 4500000.0, 4500000.0, -4500000.375, 4500000.0, 0.023000000976026058, 0.937000036239624, 0.4300000071525574, 192.0, 0.0, 0.0, 0.0, 0.0, 0.0, 0.0, 0.0, 0.0, 0.0, 1.629243617003366E9, 2021-08-17 17:40:17.003
208.0, -1235808.5625, 4500000.0, -2081000.0625, 4500000.0, 4500000.0, -1707806.625, 4500000.0, -1161897.09375, 4500000.0, 4500000.0, 4500000.0, 4500000.0, 4500000.0, 4500000.0, -4500000.375, 4500000.0, 0.023000000976026058, 0.937000036239624, 0.4300000071525574, 192.0, 0.0, 0.0, 0.0, 0.0, 0.0, 0.0, 0.0, 0.0, 0.0, 1.6292436170033758E9, 2021-08-17 17:40:17.003
210.0, -1236625.59375, 4500000.0, -2078055.0, 4500000.0, 4500000.0, -1705616.8125, 4500000.0, -1162376.71875, 4500000.0, 4500000.0, 4500000.0, 4500000.0, 4500000.0, 4500000.0, -4500000.375, 4500000.0, 0.025500000920146704, 0.9295000433921814, 0.4270000159740448, 192.0, 0.0, 112.0, 14.0, 104.0, 6.5, 32.0, 0.0, 0.0, 0.0, 1.6292436170033827E9, 2021-08-17 17:40:17.003
212.0, -1235093.53125, 4500000.0, -2081033.25, 4500000.0, 4500000.0, -1707688.125, 4500000.0, -1161657.84375, 4500000.0, 4500000.0, 4500000.0, 4500000.0, 4500000.0, 4500000.0, -4500000.375, 4500000.0, 0.025500000920146704, 0.9295000433921814, 0.4270000159740448, 192.0, 0.0, 0.0, 0.0, 0.0, 0.0, 0.0, 0.0, 0.0, 0.0, 1.62924361700339E9, 2021-08-17 17:40:17.003
214.0, -1237450.6875, 4500000.0, -2078036.25, 4500000.0, 4500000.0, -1706348.625, 4500000.0, -1162865.34375, 4500000.0, 4500000.0, 4500000.0, 4500000.0, 4500000.0, 4500000.0, -4500000.375, 4500000.0, 0.025500000920146704, 0.9295000433921814, 0.4270000159740448, 192.0, 0.0, 0.0, 0.0, 0.0, 0.0, 0.0, 0.0, 0.0, 0.0, 1.629243617003397E9, 2021-08-17 17:40:17.003
216.0, -1234529.71875, 4500000.0, -2081118.1875, 4500000.0, 4500000.0, -1707514.875, 4500000.0, -1161058.125, 4500000.0, 4500000.0, 4500000.0, 4500000.0, 4500000.0, 4500000.0, -4500000.375, 4500000.0, 0.025500000920146704, 0.9295000433921814, 0.4270000159740448, 192.0, 0.0, 0.0, 0.0, 0.0, 0.0, 0.0, 0.0, 0.0, 0.0, 1.629243617003404E9, 2021-08-17 17:40:17.003
218.0, -1237952.71875, 4500000.0, -2078057.625, 4500000.0, 4500000.0, -1706923.6875, 4500000.0, -1163431.875, 4500000.0, 4500000.0, 4500000.0, 4500000.0, 4500000.0, 4500000.0, -4500000.375, 4500000.0, 0.025500000920146704, 0.9295000433921814, 0.4270000159740448, 192.0, 0.0, 0.0, 0.0, 0.0, 0.0, 0.0, 0.0, 0.0, 0.0, 1.6292436170034113E9, 2021-08-17 17:40:17.003
220.0, -1234726.59375, 4500000.0, -2081555.25, 4500000.0, 4500000.0, -1707928.3125, 4500000.0, -1161185.25, 4500000.0, 4500000.0, 4500000.0, 4500000.0, 4500000.0, 4500000.0, -4500000.375, 4500000.0, 0.026750000892207026, 0.9217500388622284, 0.4195000231266022, 192.0, 0.0, 112.0, 14.0, 72.0, 6.0, 112.0, 0.0, 0.0, 0.0, 1.6292436170034187E9, 2021-08-17 17:40:17.003
222.0, -1238310.5625, 4500000.0, -2078153.25, 4500000.0, 4500000.0, -1707830.8125, 4500000.0, -1163856.75, 4500000.0, 4500000.0, 4500000.0, 4500000.0, 4500000.0, 4500000.0, -4500000.375, 4500000.0, 0.026750000892207026, 0.9217500388622284, 0.4195000231266022, 192.0, 0.0, 0.0, 0.0, 0.0, 0.0, 0.0, 0.0, 0.0, 0.0, 1.6292436170034256E9, 2021-08-17 17:40:17.003
224.0, -1234216.96875, 4500000.0, -2081228.625, 4500000.0, 4500000.0, -1707852.75, 4500000.0, -1160765.71875, 4500000.0, 4500000.0, 4500000.0, 4500000.0, 4500000.0, 4500000.0, -4500000.375, 4500000.0, 0.026750000892207026, 0.9217500388622284, 0.4195000231266022, 192.0, 0.0, 0.0, 0.0, 0.0, 0.0, 0.0, 0.0, 0.0, 0.0, 1.6292436170034325E9, 2021-08-17 17:40:17.003
226.0, -1238939.25, 4500000.0, -2078270.625, 4500000.0, 4500000.0, -1708627.3125, 4500000.0, -1164163.59375, 4500000.0, 4500000.0, 4500000.0, 4500000.0, 4500000.0, 4500000.0, -4500000.375, 4500000.0, 0.026750000892207026, 0.9217500388622284, 0.4195000231266022, 192.0, 0.0, 0.0, 0.0, 0.0, 0.0, 0.0, 0.0, 0.0, 0.0, 1.6292436170034397E9, 2021-08-17 17:40:17.003
228.0, -1233543.1875, 4500000.0, -2080284.0, 4500000.0, 4500000.0, -1707343.6875, 4500000.0, -1160425.59375, 4500000.0, 4500000.0, 4500000.0, 4500000.0, 4500000.0, 4500000.0, -4500000.375, 4500000.0, 0.026750000892207026, 0.9217500388622284, 0.4195000231266022, 192.0, 0.0, 0.0, 0.0, 0.0, 0.0, 0.0, 0.0, 0.0, 0.0, 1.6292436170034466E9, 2021-08-17 17:40:17.003
0.0, -634572.609375, 2249999.625, -1052099.25, 2249999.625, 2249999.625, -865165.40625, 2249999.625, -597316.734375, 2249999.625, 2249999.625, 2249999.625, 2249999.625, 2249999.625, 2249999.625, -2250000.1875, 2249999.625, -0.024000000208616257, 0.9380000233650208, 0.3620000183582306, 192.0, 127.5, 32.0, 14.5, 40.0, 5.5, 40.0, 0.0, 0.0, 0.0, 1.62924361756506E9, 2021-08-17 17:40:17.565
2.0, -1266126.1875, 4500000.0, -2102768.8125, 4500000.0, 4500000.0, -1727137.3125, 4500000.0, -1192266.1875, 4500000.0, 4500000.0, 4500000.0, 4500000.0, 4500000.0, 4500000.0, -4500000.375, 4500000.0, -0.024000000208616257, 0.9380000233650208, 0.3620000183582306, 192.0, 0.0, 0.0, 0.0, 0.0, 0.0, 0.0, 0.0, 0.0, 0.0, 1.629243617565068E9, 2021-08-17 17:40:17.565
4.0, -1266300.46875, 4500000.0, -2105807.25, 4500000.0, 4500000.0, -1730012.0625, 4500000.0, -1192983.375, 4500000.0, 4500000.0, 4500000.0, 4500000.0, 4500000.0, 4500000.0, -4500000.375, 4500000.0, -0.024000000208616257, 0.9380000233650208, 0.3620000183582306, 192.0, 0.0, 0.0, 0.0, 0.0, 0.0, 0.0, 0.0, 0.0, 0.0, 1.6292436175650747E9, 2021-08-17 17:40:17.565
6.0, -1267137.84375, 4500000.0, -2102740.5, 4500000.0, 4500000.0, -1727447.4375, 4500000.0, -1192863.1875, 4500000.0, 4500000.0, 4500000.0, 4500000.0, 4500000.0, 4500000.0, -4500000.375, 4500000.0, -0.024000000208616257, 0.945000022649765, 0.3540000170469284, 192.0, 127.5, 32.0, 14.5, 96.0, 5.0, 104.0, 0.0, 0.0, 0.0, 1.6292436175650818E9, 2021-08-17 17:40:17.565
8.0, -1265997.9375, 4500000.0, -2105889.375, 4500000.0, 4500000.0, -1729654.3125, 4500000.0, -1192789.21875, 4500000.0, 4500000.0, 4500000.0, 4500000.0, 4500000.0, 4500000.0, -4500000.375, 4500000.0, -0.024000000208616257, 0.945000022649765, 0.3540000170469284, 192.0, 0.0, 0.0, 0.0, 0.0, 0.0, 0.0, 0.0, 0.0, 0.0, 1.6292436175650887E9, 2021-08-17 17:40:17.565
10.0, -1267911.375, 4500000.0, -2102905.125, 4500000.0, 4500000.0, -1727843.8125, 4500000.0, -1193303.0625, 4500000.0, 4500000.0, 4500000.0, 4500000.0, 4500000.0, 4500000.0, -4500000.375, 4500000.0, -0.024000000208616257, 0.945000022649765, 0.3540000170469284, 192.0, 0.0, 0.0, 0.0, 0.0, 0.0, 0.0, 0.0, 0.0, 0.0, 1.6292436175651083E9, 2021-08-17 17:40:17.565
12.0, -1265139.65625, 4500000.0, -2105297.625, 4500000.0, 4500000.0, -1728548.625, 4500000.0, -1191795.65625, 4500000.0, 4500000.0, 4500000.0, 4500000.0, 4500000.0, 4500000.0, -4500000.375, 4500000.0, -0.024000000208616257, 0.945000022649765, 0.3540000170469284, 192.0, 0.0, 0.0, 0.0, 0.0, 0.0, 0.0, 0.0, 0.0, 0.0, 1.629243617565116E9, 2021-08-17 17:40:17.565
14.0, -1268333.0625, 4500000.0, -2103141.1875, 4500000.0, 4500000.0, -1728039.0, 4500000.0, -1193799.28125, 4500000.0, 4500000.0, 4500000.0, 4500000.0, 4500000.0, 4500000.0, -4500000.375, 4500000.0, -0.024000000208616257, 0.945000022649765, 0.3540000170469284, 192.0, 0.0, 0.0, 0.0, 0.0, 0.0, 0.0, 0.0, 0.0, 0.0, 1.629243617565146E9, 2021-08-17 17:40:17.565
16.0, -1265023.78125, 4500000.0, -2105925.375, 4500000.0, 4500000.0, -1728729.9375, 4500000.0, -1192147.03125, 4500000.0, 4500000.0, 4500000.0, 4500000.0, 4500000.0, 4500000.0, -4500000.375, 4500000.0, -0.023000000976026058, 0.9515000432729721, 0.3460000231862068, 192.0, 127.5, 40.0, 14.5, 120.0, 5.0, 72.0, 0.0, 0.0, 0.0, 1.6292436175651524E9, 2021-08-17 17:40:17.565
18.0, -1268367.9375, 4500000.0, -2102574.1875, 4500000.0, 4500000.0, -1727796.0, 4500000.0, -1194166.21875, 4500000.0, 4500000.0, 4500000.0, 4500000.0, 4500000.0, 4500000.0, -4500000.375, 4500000.0, -0.023000000976026058, 0.9515000432729721, 0.3460000231862068, 192.0, 0.0, 0.0, 0.0, 0.0, 0.0, 0.0, 0.0, 0.0, 0.0, 1.6292436175651603E9, 2021-08-17 17:40:17.565
20.0, -1264582.78125, 4500000.0, -2106240.1875, 4500000.0, 4500000.0, -1728763.3125, 4500000.0, -1191901.875, 4500000.0, 4500000.0, 4500000.0, 4500000.0, 4500000.0, 4500000.0, -4500000.375, 4500000.0, -0.023000000976026058, 0.9515000432729721, 0.3460000231862068, 192.0, 0.0, 0.0, 0.0, 0.0, 0.0, 0.0, 0.0, 0.0, 0.0, 1.6292436175651667E9, 2021-08-17 17:40:17.565
22.0, -1269061.59375, 4500000.0, -2103098.25, 4500000.0, 4500000.0, -1728610.875, 4500000.0, -1194729.46875, 4500000.0, 4500000.0, 4500000.0, 4500000.0, 4500000.0, 4500000.0, -4500000.375, 4500000.0, -0.023000000976026058, 0.9515000432729721, 0.3460000231862068, 192.0, 0.0, 0.0, 0.0, 0.0, 0.0, 0.0, 0.0, 0.0, 0.0, 1.6292436175651734E9, 2021-08-17 17:40:17.565
24.0, -1264224.46875, 4500000.0, -2105591.625, 4500000.0, 4500000.0, -1728146.25, 4500000.0, -1191623.53125, 4500000.0, 4500000.0, 4500000.0, 4500000.0, 4500000.0, 4500000.0, -4500000.375, 4500000.0, -0.023000000976026058, 0.9515000432729721, 0.3460000231862068, 192.0, 0.0, 0.0, 0.0, 0.0, 0.0, 0.0, 0.0, 0.0, 0.0, 1.62924361756518E9, 2021-08-17 17:40:17.565
26.0, -1268975.71875, 4500000.0, -2102818.3125, 4500000.0, 4500000.0, -1728768.5625, 4500000.0, -1194700.5, 4500000.0, 4500000.0, 4500000.0, 4500000.0, 4500000.0, 4500000.0, -4500000.375, 4500000.0, -0.02450000075623393, 0.9547500535845757, 0.3370000161230564, 192.0, 127.5, 24.0, 14.5, 120.0, 5.0, 32.0, 0.0, 0.0, 0.0, 1.6292436175651865E9, 2021-08-17 17:40:17.565
28.0, -1264367.71875, 4500000.0, -2105221.5, 4500000.0, 4500000.0, -1728122.8125, 4500000.0, -1191555.9375, 4500000.0, 4500000.0, 4500000.0, 4500000.0, 4500000.0, 4500000.0, -4500000.375, 4500000.0, -0.02450000075623393, 0.9547500535845757, 0.3370000161230564, 192.0, 0.0, 0.0, 0.0, 0.0, 0.0, 0.0, 0.0, 0.0, 0.0, 1.6292436175651932E9, 2021-08-17 17:40:17.565
30.0, -1269363.0, 4500000.0, -2103546.1875, 4500000.0, 4500000.0, -1729579.125, 4500000.0, -1194912.9375, 4500000.0, 4500000.0, 4500000.0, 4500000.0, 4500000.0, 4500000.0, -4500000.375, 4500000.0, -0.02450000075623393, 0.9547500535845757, 0.3370000161230564, 192.0, 0.0, 0.0, 0.0, 0.0, 0.0, 0.0, 0.0, 0.0, 0.0, 1.6292436175652003E9, 2021-08-17 17:40:17.565
32.0, -1264606.40625, 4500000.0, -2104965.0, 4500000.0, 4500000.0, -1727862.0, 4500000.0, -1191511.40625, 4500000.0, 4500000.0, 4500000.0, 4500000.0, 4500000.0, 4500000.0, -4500000.375, 4500000.0, -0.02450000075623393, 0.9547500535845757, 0.3370000161230564, 192.0, 0.0, 0.0, 0.0, 0.0, 0.0, 0.0, 0.0, 0.0, 0.0, 1.6292436175652075E9, 2021-08-17 17:40:17.565
34.0, -1268659.21875, 4500000.0, -2103237.1875, 4500000.0, 4500000.0, -1729247.0625, 4500000.0, -1194367.40625, 4500000.0, 4500000.0, 4500000.0, 4500000.0, 4500000.0, 4500000.0, -4500000.375, 4500000.0, -0.02450000075623393, 0.9547500535845757, 0.3370000161230564, 192.0, 0.0, 0.0, 0.0, 0.0, 0.0, 0.0, 0.0, 0.0, 0.0, 1.629243617565214E9, 2021-08-17 17:40:17.565
36.0, -1264433.625, 4500000.0, -2104031.625, 4500000.0, 4500000.0, -1727364.75, 4500000.0, -1191223.875, 4500000.0, 4500000.0, 4500000.0, 4500000.0, 4500000.0, 4500000.0, -4500000.375, 4500000.0, -0.028250001138076186, 0.9563750587403774, 0.3285000193864107, 192.0, 127.5, 0.0, 14.5, 120.0, 5.0, 0.0, 0.0, 0.0, 0.0, 1.6292436175652206E9, 2021-08-17 17:40:17.565
38.0, -1268636.15625, 4500000.0, -2104031.625, 4500000.0, 4500000.0, -1729909.6875, 4500000.0, -1194447.28125, 4500000.0, 4500000.0, 4500000.0, 4500000.0, 4500000.0, 4500000.0, -4500000.375, 4500000.0, -0.028250001138076186, 0.9563750587403774, 0.3285000193864107, 192.0, 0.0, 0.0, 0.0, 0.0, 0.0, 0.0, 0.0, 0.0, 0.0, 1.6292436175652273E9, 2021-08-17 17:40:17.565
40.0, -1265273.15625, 4500000.0, -2104217.25, 4500000.0, 4500000.0, -1727619.0, 4500000.0, -1191809.0625, 4500000.0, 4500000.0, 4500000.0, 4500000.0, 4500000.0, 4500000.0, -4500000.375, 4500000.0, -0.028250001138076186, 0.9563750587403774, 0.3285000193864107, 192.0, 0.0, 0.0, 0.0, 0.0, 0.0, 0.0, 0.0, 0.0, 0.0, 1.629243617565234E9, 2021-08-17 17:40:17.565
42.0, -1268181.75, 4500000.0, -2104599.1875, 4500000.0, 4500000.0, -1729963.3125, 4500000.0, -1194342.75, 4500000.0, 4500000.0, 4500000.0, 4500000.0, 4500000.0, 4500000.0, -4500000.375, 4500000.0, -0.028250001138076186, 0.9563750587403774, 0.3285000193864107, 192.0, 0.0, 0.0, 0.0, 0.0, 0.0, 0.0, 0.0, 0.0, 0.0, 1.6292436175652404E9, 2021-08-17 17:40:17.565
44.0, -1265926.03125, 4500000.0, -2103845.0625, 4500000.0, 4500000.0, -1727715.0, 4500000.0, -1192446.375, 4500000.0, 4500000.0, 4500000.0, 4500000.0, 4500000.0, 4500000.0, -4500000.375, 4500000.0, -0.028250001138076186, 0.9563750587403774, 0.3285000193864107, 192.0, 0.0, 0.0, 0.0, 0.0, 0.0, 0.0, 0.0, 0.0, 0.0, 1.6292436175652473E9, 2021-08-17 17:40:17.565
46.0, -1268059.96875, 4500000.0, -2105403.375, 4500000.0, 4500000.0, -1730516.8125, 4500000.0, -1194151.21875, 4500000.0, 4500000.0, 4500000.0, 4500000.0, 4500000.0, 4500000.0, -4500000.375, 4500000.0, -0.031125001492910087, 0.9561875443905592, 0.3172500217333436, 192.0, 127.0, 120.0, 14.5, 112.0, 4.5, 72.0, 0.0, 0.0, 0.0, 1.629243617565254E9, 2021-08-17 17:40:17.565
48.0, -1266573.0, 4500000.0, -2103830.4375, 4500000.0, 4500000.0, -1727964.9375, 4500000.0, -1192805.25, 4500000.0, 4500000.0, 4500000.0, 4500000.0, 4500000.0, 4500000.0, -4500000.375, 4500000.0, -0.031125001492910087, 0.9561875443905592, 0.3172500217333436, 192.0, 0.0, 0.0, 0.0, 0.0, 0.0, 0.0, 0.0, 0.0, 0.0, 1.6292436175652633E9, 2021-08-17 17:40:17.565
50.0, -1266799.875, 4500000.0, -2105373.375, 4500000.0, 4500000.0, -1729820.0625, 4500000.0, -1193323.5, 4500000.0, 4500000.0, 4500000.0, 4500000.0, 4500000.0, 4500000.0, -4500000.375, 4500000.0, -0.031125001492910087, 0.9561875443905592, 0.3172500217333436, 192.0, 0.0, 0.0, 0.0, 0.0, 0.0, 0.0, 0.0, 0.0, 0.0, 1.6292436175652697E9, 2021-08-17 17:40:17.565
52.0, -1267176.46875, 4500000.0, -2103416.4375, 4500000.0, 4500000.0, -1727839.5, 4500000.0, -1193258.0625, 4500000.0, 4500000.0, 4500000.0, 4500000.0, 4500000.0, 4500000.0, -4500000.375, 4500000.0, -0.031125001492910087, 0.9561875443905592, 0.3172500217333436, 192.0, 0.0, 0.0, 0.0, 0.0, 0.0, 0.0, 0.0, 0.0, 0.0, 1.6292436175652764E9, 2021-08-17 17:40:17.565
54.0, -1266536.53125, 4500000.0, -2105790.1875, 4500000.0, 4500000.0, -1729993.875, 4500000.0, -1193250.0, 4500000.0, 4500000.0, 4500000.0, 4500000.0, 4500000.0, 4500000.0, -4500000.375, 4500000.0, -0.031125001492910087, 0.9561875443905592, 0.3172500217333436, 192.0, 0.0, 0.0, 0.0, 0.0, 0.0, 0.0, 0.0, 0.0, 0.0, 1.6292436175652828E9, 2021-08-17 17:40:17.565
56.0, -1267900.125, 4500000.0, -2103357.375, 4500000.0, 4500000.0, -1728196.6875, 4500000.0, -1193603.53125, 4500000.0, 4500000.0, 4500000.0, 4500000.0, 4500000.0, 4500000.0, -4500000.375, 4500000.0, -0.03400000184774399, 0.956000030040741, 0.30800002813339233, 192.0, 127.0, 120.0, 14.5, 112.0, 4.5, 80.0, 0.0, 0.0, 0.0, 1.6292436175652895E9, 2021-08-17 17:40:17.565
58.0, -1266177.65625, 4500000.0, -2105837.8125, 4500000.0, 4500000.0, -1729726.125, 4500000.0, -1192639.5, 4500000.0, 4500000.0, 4500000.0, 4500000.0, 4500000.0, 4500000.0, -4500000.375, 4500000.0, -0.03400000184774399, 0.956000030040741, 0.30800002813339233, 192.0, 0.0, 0.0, 0.0, 0.0, 0.0, 0.0, 0.0, 0.0, 0.0, 1.629243617565296E9, 2021-08-17 17:40:17.565
60.0, -1268159.25, 4500000.0, -2102662.6875, 4500000.0, 4500000.0, -1727953.6875, 4500000.0, -1193628.1875, 4500000.0, 4500000.0, 4500000.0, 4500000.0, 4500000.0, 4500000.0, -4500000.375, 4500000.0, -0.03400000184774399, 0.956000030040741, 0.30800002813339233, 192.0, 0.0, 0.0, 0.0, 0.0, 0.0, 0.0, 0.0, 0.0, 0.0, 1.6292436175653028E9, 2021-08-17 17:40:17.565
62.0, -1265897.625, 4500000.0, -2105995.125, 4500000.0, 4500000.0, -1729693.5, 4500000.0, -1192716.1875, 4500000.0, 4500000.0, 4500000.0, 4500000.0, 4500000.0, 4500000.0, -4500000.375, 4500000.0, -0.03400000184774399, 0.956000030040741, 0.30800002813339233, 192.0, 0.0, 0.0, 0.0, 0.0, 0.0, 0.0, 0.0, 0.0, 0.0, 1.6292436175653093E9, 2021-08-17 17:40:17.565
64.0, -1268951.0625, 4500000.0, -2102877.75, 4500000.0, 4500000.0, -1728498.75, 4500000.0, -1194345.9375, 4500000.0, 4500000.0, 4500000.0, 4500000.0, 4500000.0, 4500000.0, -4500000.375, 4500000.0, -0.03400000184774399, 0.956000030040741, 0.30800002813339233, 192.0, 0.0, 0.0, 0.0, 0.0, 0.0, 0.0, 0.0, 0.0, 0.0, 1.629243617565316E9, 2021-08-17 17:40:17.565
66.0, -1265703.9375, 4500000.0, -2105910.75, 4500000.0, 4500000.0, -1729263.1875, 4500000.0, -1192100.34375, 4500000.0, 4500000.0, 4500000.0, 4500000.0, 4500000.0, 4500000.0, -4500000.375, 4500000.0, -0.03800000250339508, 0.9620000720024109, 0.30400002002716064, 192.0, 127.0, 104.0, 15.0, 8.0, 4.5, 64.0, 0.0, 0.0, 0.0, 1.6292436175653224E9, 2021-08-17 17:40:17.565
68.0, -1268952.65625, 4500000.0, -2103388.5, 4500000.0, 4500000.0, -1728944.625, 4500000.0, -1194193.59375, 4500000.0, 4500000.0, 4500000.0, 4500000.0, 4500000.0, 4500000.0, -4500000.375, 4500000.0, -0.03800000250339508, 0.9620000720024109, 0.30400002002716064, 192.0, 0.0, 0.0, 0.0, 0.0, 0.0, 0.0, 0.0, 0.0, 0.0, 1.6292436175653293E9, 2021-08-17 17:40:17.565
70.0, -1265601.46875, 4500000.0, -2105469.9375, 4500000.0, 4500000.0, -1728614.625, 4500000.0, -1192112.71875, 4500000.0, 4500000.0, 4500000.0, 4500000.0, 4500000.0, 4500000.0, -4500000.375, 4500000.0, -0.03800000250339508, 0.9620000720024109, 0.30400002002716064, 192.0, 0.0, 0.0, 0.0, 0.0, 0.0, 0.0, 0.0, 0.0, 0.0, 1.6292436175653355E9, 2021-08-17 17:40:17.565
72.0, -1268932.3125, 4500000.0, -2103855.1875, 4500000.0, 4500000.0, -1729152.75, 4500000.0, -1194173.15625, 4500000.0, 4500000.0, 4500000.0, 4500000.0, 4500000.0, 4500000.0, -4500000.375, 4500000.0, -0.03800000250339508, 0.9620000720024109, 0.30400002002716064, 192.0, 0.0, 0.0, 0.0, 0.0, 0.0, 0.0, 0.0, 0.0, 0.0, 1.6292436175653424E9, 2021-08-17 17:40:17.565
74.0, -1265643.84375, 4500000.0, -2105625.375, 4500000.0, 4500000.0, -1728616.3125, 4500000.0, -1192194.28125, 4500000.0, 4500000.0, 4500000.0, 4500000.0, 4500000.0, 4500000.0, -4500000.375, 4500000.0, -0.03800000250339508, 0.9620000720024109, 0.30400002002716064, 192.0, 0.0, 0.0, 0.0, 0.0, 0.0, 0.0, 0.0, 0.0, 0.0, 1.6292436175653489E9, 2021-08-17 17:40:17.565
76.0, -1269241.78125, 4500000.0, -2103946.875, 4500000.0, 4500000.0, -1729467.5625, 4500000.0, -1194688.6875, 4500000.0, 4500000.0, 4500000.0, 4500000.0, 4500000.0, 4500000.0, -4500000.375, 4500000.0, -0.036000002175569534, 0.9600000381469727, 0.3060000240802765, 192.0, 127.0, 112.0, 15.0, 0.0, 4.5, 72.0, 0.0, 0.0, 0.0, 1.6292436175653555E9, 2021-08-17 17:40:17.565
78.0, -1266186.75, 4500000.0, -2105215.6875, 4500000.0, 4500000.0, -1728422.0625, 4500000.0, -1192377.75, 4500000.0, 4500000.0, 4500000.0, 4500000.0, 4500000.0, 4500000.0, -4500000.375, 4500000.0, -0.036000002175569534, 0.9600000381469727, 0.3060000240802765, 192.0, 0.0, 0.0, 0.0, 0.0, 0.0, 0.0, 0.0, 0.0, 0.0, 1.629243617565362E9, 2021-08-17 17:40:17.565
80.0, -1268953.21875, 4500000.0, -2104328.8125, 4500000.0, 4500000.0, -1729726.125, 4500000.0, -1194923.71875, 4500000.0, 4500000.0, 4500000.0, 4500000.0, 4500000.0, 4500000.0, -4500000.375, 4500000.0, -0.036000002175569534, 0.9600000381469727, 0.3060000240802765, 192.0, 0.0, 0.0, 0.0, 0.0, 0.0, 0.0, 0.0, 0.0, 0.0, 1.6292436175653687E9, 2021-08-17 17:40:17.565
82.0, -1265712.0, 4500000.0, -2104474.6875, 4500000.0, 4500000.0, -1727838.9375, 4500000.0, -1192187.8125, 4500000.0, 4500000.0, 4500000.0, 4500000.0, 4500000.0, 4500000.0, -4500000.375, 4500000.0, -0.036000002175569534, 0.9600000381469727, 0.3060000240802765, 192.0, 0.0, 0.0, 0.0, 0.0, 0.0, 0.0, 0.0, 0.0, 0.0, 1.6292436175653772E9, 2021-08-17 17:40:17.565
84.0, -1268400.09375, 4500000.0, -2104357.3125, 4500000.0, 4500000.0, -1729478.8125, 4500000.0, -1194186.09375, 4500000.0, 4500000.0, 4500000.0, 4500000.0, 4500000.0, 4500000.0, -4500000.375, 4500000.0, -0.036000002175569534, 0.9600000381469727, 0.3060000240802765, 192.0, 0.0, 0.0, 0.0, 0.0, 0.0, 0.0, 0.0, 0.0, 0.0, 1.6292436175653837E9, 2021-08-17 17:40:17.565
86.0, -1266393.84375, 4500000.0, -2104580.4375, 4500000.0, 4500000.0, -1728070.125, 4500000.0, -1192622.90625, 4500000.0, 4500000.0, 4500000.0, 4500000.0, 4500000.0, 4500000.0, -4500000.375, 4500000.0, -0.04000000283122063, 0.9640000462532043, 0.30400002002716064, 192.0, 127.0, 96.0, 15.0, 16.0, 4.5, 64.0, 0.0, 0.0, 0.0, 1.6292436175653903E9, 2021-08-17 17:40:17.565
88.0, -1268285.34375, 4500000.0, -2104337.4375, 4500000.0, 4500000.0, -1729365.75, 4500000.0, -1194129.1875, 4500000.0, 4500000.0, 4500000.0, 4500000.0, 4500000.0, 4500000.0, -4500000.375, 4500000.0, -0.04000000283122063, 0.9640000462532043, 0.30400002002716064, 192.0, 0.0, 0.0, 0.0, 0.0, 0.0, 0.0, 0.0, 0.0, 0.0, 1.6292436175653968E9, 2021-08-17 17:40:17.565
90.0, -1266555.28125, 4500000.0, -2104748.8125, 4500000.0, 4500000.0, -1728242.4375, 4500000.0, -1192846.03125, 4500000.0, 4500000.0, 4500000.0, 4500000.0, 4500000.0, 4500000.0, -4500000.375, 4500000.0, -0.04000000283122063, 0.9640000462532043, 0.30400002002716064, 192.0, 0.0, 0.0, 0.0, 0.0, 0.0, 0.0, 0.0, 0.0, 0.0, 1.6292436175654035E9, 2021-08-17 17:40:17.565
92.0, -1267982.25, 4500000.0, -2104435.125, 4500000.0, 4500000.0, -1729209.0, 4500000.0, -1193984.34375, 4500000.0, 4500000.0, 4500000.0, 4500000.0, 4500000.0, 4500000.0, -4500000.375, 4500000.0, -0.04000000283122063, 0.9640000462532043, 0.30400002002716064, 192.0, 0.0, 0.0, 0.0, 0.0, 0.0, 0.0, 0.0, 0.0, 0.0, 1.62924361756541E9, 2021-08-17 17:40:17.565
94.0, -1266649.21875, 4500000.0, -2104518.1875, 4500000.0, 4500000.0, -1728091.125, 4500000.0, -1193101.96875, 4500000.0, 4500000.0, 4500000.0, 4500000.0, 4500000.0, 4500000.0, -4500000.375, 4500000.0, -0.039000002667307854, 0.9660000503063202, 0.3020000159740448, 192.0, 127.0, 104.0, 15.0, 32.0, 4.5, 48.0, 0.0, 0.0, 0.0, 1.6292436175654166E9, 2021-08-17 17:40:17.565
96.0, -1268502.5625, 4500000.0, -2105490.1875, 4500000.0, 4500000.0, -1730077.5, 4500000.0, -1194446.25, 4500000.0, 4500000.0, 4500000.0, 4500000.0, 4500000.0, 4500000.0, -4500000.375, 4500000.0, -0.039000002667307854, 0.9660000503063202, 0.3020000159740448, 192.0, 0.0, 0.0, 0.0, 0.0, 0.0, 0.0, 0.0, 0.0, 0.0, 1.6292436175654233E9, 2021-08-17 17:40:17.565
98.0, -1266705.0, 4500000.0, -2104224.1875, 4500000.0, 4500000.0, -1728111.0, 4500000.0, -1192928.15625, 4500000.0, 4500000.0, 4500000.0, 4500000.0, 4500000.0, 4500000.0, -4500000.375, 4500000.0, -0.039000002667307854, 0.9660000503063202, 0.3020000159740448, 192.0, 0.0, 0.0, 0.0, 0.0, 0.0, 0.0, 0.0, 0.0, 0.0, 1.6292436175654297E9, 2021-08-17 17:40:17.565
100.0, -1267857.28125, 4500000.0, -2105492.4375, 4500000.0, 4500000.0, -1729918.6875, 4500000.0, -1194079.875, 4500000.0, 4500000.0, 4500000.0, 4500000.0, 4500000.0, 4500000.0, -4500000.375, 4500000.0, -0.039000002667307854, 0.9660000503063202, 0.3020000159740448, 192.0, 0.0, 0.0, 0.0, 0.0, 0.0, 0.0, 0.0, 0.0, 0.0, 1.6292436175654361E9, 2021-08-17 17:40:17.565
102.0, -1267292.34375, 4500000.0, -2104390.5, 4500000.0, 4500000.0, -1728410.25, 4500000.0, -1193609.90625, 4500000.0, 4500000.0, 4500000.0, 4500000.0, 4500000.0, 4500000.0, -4500000.375, 4500000.0, -0.039000002667307854, 0.9660000503063202, 0.3020000159740448, 192.0, 0.0, 0.0, 0.0, 0.0, 0.0, 0.0, 0.0, 0.0, 0.0, 1.6292436175654428E9, 2021-08-17 17:40:17.565
104.0, -1267480.6875, 4500000.0, -2105540.625, 4500000.0, 4500000.0, -1729631.25, 4500000.0, -1193606.15625, 4500000.0, 4500000.0, 4500000.0, 4500000.0, 4500000.0, 4500000.0, -4500000.375, 4500000.0, -0.04050000291317701, 0.9670000523328781, 0.30000001192092896, 192.0, 127.0, 88.0, 15.0, 32.0, 4.5, 40.0, 0.0, 0.0, 0.0, 1.6292436175654495E9, 2021-08-17 17:40:17.565
106.0, -1267498.875, 4500000.0, -2104110.0, 4500000.0, 4500000.0, -1728301.875, 4500000.0, -1193539.6875, 4500000.0, 4500000.0, 4500000.0, 4500000.0, 4500000.0, 4500000.0, -4500000.375, 4500000.0, -0.04050000291317701, 0.9670000523328781, 0.30000001192092896, 192.0, 0.0, 0.0, 0.0, 0.0, 0.0, 0.0, 0.0, 0.0, 0.0, 1.629243617565456E9, 2021-08-17 17:40:17.565
108.0, -1266931.3125, 4500000.0, -2105355.5625, 4500000.0, 4500000.0, -1729119.375, 4500000.0, -1193441.53125, 4500000.0, 4500000.0, 4500000.0, 4500000.0, 4500000.0, 4500000.0, -4500000.375, 4500000.0, -0.04050000291317701, 0.9670000523328781, 0.30000001192092896, 192.0, 0.0, 0.0, 0.0, 0.0, 0.0, 0.0, 0.0, 0.0, 0.0, 1.6292436175654626E9, 2021-08-17 17:40:17.565
110.0, -1267922.71875, 4500000.0, -2103934.125, 4500000.0, 4500000.0, -1728380.25, 4500000.0, -1194005.8125, 4500000.0, 4500000.0, 4500000.0, 4500000.0, 4500000.0, 4500000.0, -4500000.375, 4500000.0, -0.04050000291317701, 0.9670000523328781, 0.30000001192092896, 192.0, 0.0, 0.0, 0.0, 0.0, 0.0, 0.0, 0.0, 0.0, 0.0, 1.6292436175654693E9, 2021-08-17 17:40:17.565
112.0, -1266963.5625, 4500000.0, -2105470.875, 4500000.0, 4500000.0, -1729007.8125, 4500000.0, -1193250.0, 4500000.0, 4500000.0, 4500000.0, 4500000.0, 4500000.0, 4500000.0, -4500000.375, 4500000.0, -0.04050000291317701, 0.9670000523328781, 0.30000001192092896, 192.0, 0.0, 0.0, 0.0, 0.0, 0.0, 0.0, 0.0, 0.0, 0.0, 1.6292436175654771E9, 2021-08-17 17:40:17.565
114.0, -1268510.0625, 4500000.0, -2103951.1875, 4500000.0, 4500000.0, -1728509.0625, 4500000.0, -1194391.03125, 4500000.0, 4500000.0, 4500000.0, 4500000.0, 4500000.0, 4500000.0, -4500000.375, 4500000.0, -0.04125000303611159, 0.966500036418438, 0.29600001871585846, 192.0, 127.0, 88.0, 15.0, 24.0, 4.5, 16.0, 0.0, 0.0, 0.0, 1.629243617565484E9, 2021-08-17 17:40:17.565
116.0, -1266726.375, 4500000.0, -2105337.375, 4500000.0, 4500000.0, -1728686.0625, 4500000.0, -1193194.6875, 4500000.0, 4500000.0, 4500000.0, 4500000.0, 4500000.0, 4500000.0, -4500000.375, 4500000.0, -0.04125000303611159, 0.966500036418438, 0.29600001871585846, 192.0, 0.0, 0.0, 0.0, 0.0, 0.0, 0.0, 0.0, 0.0, 0.0, 1.6292436175654924E9, 2021-08-17 17:40:17.565
118.0, -1268698.875, 4500000.0, -2104019.8125, 4500000.0, 4500000.0, -1728849.0, 4500000.0, -1194547.59375, 4500000.0, 4500000.0, 4500000.0, 4500000.0, 4500000.0, 4500000.0, -4500000.375, 4500000.0, -0.04125000303611159, 0.966500036418438, 0.29600001871585846, 192.0, 0.0, 0.0, 0.0, 0.0, 0.0, 0.0, 0.0, 0.0, 0.0, 1.6292436175654988E9, 2021-08-17 17:40:17.565
120.0, -1266854.625, 4500000.0, -2105642.0625, 4500000.0, 4500000.0, -1728830.8125, 4500000.0, -1193427.5625, 4500000.0, 4500000.0, 4500000.0, 4500000.0, 4500000.0, 4500000.0, -4500000.375, 4500000.0, -0.04125000303611159, 0.966500036418438, 0.29600001871585846, 192.0, 0.0, 0.0, 0.0, 0.0, 0.0, 0.0, 0.0, 0.0, 0.0, 1.6292436180463686E9, 2021-08-17 17:40:18.046
122.0, -1269145.78125, 4500000.0, -2104332.5625, 4500000.0, 4500000.0, -1729185.375, 4500000.0, -1194817.5, 4500000.0, 4500000.0, 4500000.0, 4500000.0, 4500000.0, 4500000.0, -4500000.375, 4500000.0, -0.04125000303611159, 0.966500036418438, 0.29600001871585846, 192.0, 0.0, 0.0, 0.0, 0.0, 0.0, 0.0, 0.0, 0.0, 0.0, 1.6292436180467048E9, 2021-08-17 17:40:18.046
124.0, -1266700.125, 4500000.0, -2105265.9375, 4500000.0, 4500000.0, -1728456.375, 4500000.0, -1192906.6875, 4500000.0, 4500000.0, 4500000.0, 4500000.0, 4500000.0, 4500000.0, -4500000.375, 4500000.0, -0.038625002605840564, 0.9662500284612179, 0.29500000923871994, 192.0, 127.0, 112.0, 15.0, 24.0, 4.5, 24.0, 0.0, 0.0, 0.0, 1.629243618046713E9, 2021-08-17 17:40:18.046
126.0, -1269365.71875, 4500000.0, -2104257.0, 4500000.0, 4500000.0, -1729315.875, 4500000.0, -1195112.53125, 4500000.0, 4500000.0, 4500000.0, 4500000.0, 4500000.0, 4500000.0, -4500000.375, 4500000.0, -0.038625002605840564, 0.9662500284612179, 0.29500000923871994, 192.0, 0.0, 0.0, 0.0, 0.0, 0.0, 0.0, 0.0, 0.0, 0.0, 1.6292436180467212E9, 2021-08-17 17:40:18.046
128.0, -1266914.15625, 4500000.0, -2105119.125, 4500000.0, 4500000.0, -1728299.8125, 4500000.0, -1193209.21875, 4500000.0, 4500000.0, 4500000.0, 4500000.0, 4500000.0, 4500000.0, -4500000.375, 4500000.0, -0.038625002605840564, 0.9662500284612179, 0.29500000923871994, 192.0, 0.0, 0.0, 0.0, 0.0, 0.0, 0.0, 0.0, 0.0, 0.0, 1.6292436180467296E9, 2021-08-17 17:40:18.046
130.0, -1268943.0, 4500000.0, -2103840.75, 4500000.0, 4500000.0, -1728812.0625, 4500000.0, -1194886.125, 4500000.0, 4500000.0, 4500000.0, 4500000.0, 4500000.0, 4500000.0, -4500000.375, 4500000.0, -0.038625002605840564, 0.9662500284612179, 0.29500000923871994, 192.0, 0.0, 0.0, 0.0, 0.0, 0.0, 0.0, 0.0, 0.0, 0.0, 1.629243618046738E9, 2021-08-17 17:40:18.046
132.0, -1266926.53125, 4500000.0, -2104868.4375, 4500000.0, 4500000.0, -1727967.1875, 4500000.0, -1193429.71875, 4500000.0, 4500000.0, 4500000.0, 4500000.0, 4500000.0, 4500000.0, -4500000.375, 4500000.0, -0.038625002605840564, 0.9662500284612179, 0.29500000923871994, 192.0, 0.0, 0.0, 0.0, 0.0, 0.0, 0.0, 0.0, 0.0, 0.0, 1.6292436180467448E9, 2021-08-17 17:40:18.046
134.0, -1269141.46875, 4500000.0, -2104219.5, 4500000.0, 4500000.0, -1729048.6875, 4500000.0, -1194953.71875, 4500000.0, 4500000.0, 4500000.0, 4500000.0, 4500000.0, 4500000.0, -4500000.375, 4500000.0, -0.042312503210268915, 0.9701250325888395, 0.30150001868605614, 192.0, 127.0, 72.0, 15.0, 56.0, 4.5, 80.0, 0.0, 0.0, 0.0, 1.629243618046752E9, 2021-08-17 17:40:18.046
136.0, -1267045.03125, 4500000.0, -2104668.9375, 4500000.0, 4500000.0, -1727826.5625, 4500000.0, -1193348.71875, 4500000.0, 4500000.0, 4500000.0, 4500000.0, 4500000.0, 4500000.0, -4500000.375, 4500000.0, -0.042312503210268915, 0.9701250325888395, 0.30150001868605614, 192.0, 0.0, 0.0, 0.0, 0.0, 0.0, 0.0, 0.0, 0.0, 0.0, 1.6292436180467606E9, 2021-08-17 17:40:18.046
138.0, -1269185.4375, 4500000.0, -2104519.3125, 4500000.0, 4500000.0, -1729191.375, 4500000.0, -1195195.6875, 4500000.0, 4500000.0, 4500000.0, 4500000.0, 4500000.0, 4500000.0, -4500000.375, 4500000.0, -0.042312503210268915, 0.9701250325888395, 0.30150001868605614, 192.0, 0.0, 0.0, 0.0, 0.0, 0.0, 0.0, 0.0, 0.0, 0.0, 1.6292436180467896E9, 2021-08-17 17:40:18.046
140.0, -1267363.21875, 4500000.0, -2104555.875, 4500000.0, 4500000.0, -1727811.5625, 4500000.0, -1193664.09375, 4500000.0, 4500000.0, 4500000.0, 4500000.0, 4500000.0, 4500000.0, -4500000.375, 4500000.0, -0.042312503210268915, 0.9701250325888395, 0.30150001868605614, 192.0, 0.0, 0.0, 0.0, 0.0, 0.0, 0.0, 0.0, 0.0, 0.0, 1.629243618046798E9, 2021-08-17 17:40:18.046
142.0, -1268970.375, 4500000.0, -2104920.5625, 4500000.0, 4500000.0, -1729355.4375, 4500000.0, -1194984.84375, 4500000.0, 4500000.0, 4500000.0, 4500000.0, 4500000.0, 4500000.0, -4500000.375, 4500000.0, -0.042312503210268915, 0.9701250325888395, 0.30150001868605614, 192.0, 0.0, 0.0, 0.0, 0.0, 0.0, 0.0, 0.0, 0.0, 0.0, 1.6292436180468051E9, 2021-08-17 17:40:18.046
144.0, -1267823.4375, 4500000.0, -2104583.0625, 4500000.0, 4500000.0, -1728021.9375, 4500000.0, -1194092.15625, 4500000.0, 4500000.0, 4500000.0, 4500000.0, 4500000.0, 4500000.0, -4500000.375, 4500000.0, -0.05000000074505806, 0.9640000462532043, 0.30000001192092896, 192.0, 127.0, 56.0, 15.0, 16.0, 4.5, 48.0, 0.0, 0.0, 0.0, 1.6292436180468123E9, 2021-08-17 17:40:18.046
146.0, -1268478.46875, 4500000.0, -2104455.375, 4500000.0, 4500000.0, -1728897.9375, 4500000.0, -1194799.78125, 4500000.0, 4500000.0, 4500000.0, 4500000.0, 4500000.0, 4500000.0, -4500000.375, 4500000.0, -0.05000000074505806, 0.9640000462532043, 0.30000001192092896, 192.0, 0.0, 0.0, 0.0, 0.0, 0.0, 0.0, 0.0, 0.0, 0.0, 1.629243618046836E9, 2021-08-17 17:40:18.046
148.0, -1267847.0625, 4500000.0, -2103984.0, 4500000.0, 4500000.0, -1727776.6875, 4500000.0, -1194241.875, 4500000.0, 4500000.0, 4500000.0, 4500000.0, 4500000.0, 4500000.0, -4500000.375, 4500000.0, -0.05000000074505806, 0.9640000462532043, 0.30000001192092896, 192.0, 0.0, 0.0, 0.0, 0.0, 0.0, 0.0, 0.0, 0.0, 0.0, 1.6292436180468428E9, 2021-08-17 17:40:18.046
150.0, -1268449.5, 4500000.0, -2104929.1875, 4500000.0, 4500000.0, -1729119.0, 4500000.0, -1194837.84375, 4500000.0, 4500000.0, 4500000.0, 4500000.0, 4500000.0, 4500000.0, -4500000.375, 4500000.0, -0.05000000074505806, 0.9640000462532043, 0.30000001192092896, 192.0, 0.0, 0.0, 0.0, 0.0, 0.0, 0.0, 0.0, 0.0, 0.0, 1.6292436180468729E9, 2021-08-17 17:40:18.046
152.0, -1268374.875, 4500000.0, -2104166.8125, 4500000.0, 4500000.0, -1727984.8125, 4500000.0, -1194562.6875, 4500000.0, 4500000.0, 4500000.0, 4500000.0, 4500000.0, 4500000.0, -4500000.375, 4500000.0, -0.05000000074505806, 0.9640000462532043, 0.30000001192092896, 192.0, 0.0, 0.0, 0.0, 0.0, 0.0, 0.0, 0.0, 0.0, 0.0, 1.6292436180468807E9, 2021-08-17 17:40:18.046
154.0, -1268359.3125, 4500000.0, -2105142.1875, 4500000.0, 4500000.0, -1728820.6875, 4500000.0, -1194667.78125, 4500000.0, 4500000.0, 4500000.0, 4500000.0, 4500000.0, 4500000.0, -4500000.375, 4500000.0, -0.046000003814697266, 0.9600000381469727, 0.2900000214576721, 192.0, 127.0, 72.0, 15.0, 0.0, 4.5, 8.0, 0.0, 0.0, 0.0, 1.6292436180468888E9, 2021-08-17 17:40:18.046
156.0, -1268678.53125, 4500000.0, -2103931.3125, 4500000.0, 4500000.0, -1727862.5625, 4500000.0, -1194750.375, 4500000.0, 4500000.0, 4500000.0, 4500000.0, 4500000.0, 4500000.0, -4500000.375, 4500000.0, -0.046000003814697266, 0.9600000381469727, 0.2900000214576721, 192.0, 0.0, 0.0, 0.0, 0.0, 0.0, 0.0, 0.0, 0.0, 0.0, 1.6292436180468962E9, 2021-08-17 17:40:18.046
158.0, -1268253.65625, 4500000.0, -2105312.625, 4500000.0, 4500000.0, -1728969.1875, 4500000.0, -1194777.1875, 4500000.0, 4500000.0, 4500000.0, 4500000.0, 4500000.0, 4500000.0, -4500000.375, 4500000.0, -0.046000003814697266, 0.9600000381469727, 0.2900000214576721, 192.0, 0.0, 0.0, 0.0, 0.0, 0.0, 0.0, 0.0, 0.0, 0.0, 1.6292436180469048E9, 2021-08-17 17:40:18.046
160.0, -1268932.78125, 4500000.0, -2103915.75, 4500000.0, 4500000.0, -1728156.0, 4500000.0, -1195235.90625, 4500000.0, 4500000.0, 4500000.0, 4500000.0, 4500000.0, 4500000.0, -4500000.375, 4500000.0, -0.046000003814697266, 0.9600000381469727, 0.2900000214576721, 192.0, 0.0, 0.0, 0.0, 0.0, 0.0, 0.0, 0.0, 0.0, 0.0, 1.6292436180469131E9, 2021-08-17 17:40:18.046
162.0, -1267417.875, 4500000.0, -2105043.9375, 4500000.0, 4500000.0, -1728279.375, 4500000.0, -1194213.9375, 4500000.0, 4500000.0, 4500000.0, 4500000.0, 4500000.0, 4500000.0, -4500000.375, 4500000.0, -0.046000003814697266, 0.9600000381469727, 0.2900000214576721, 192.0, 0.0, 0.0, 0.0, 0.0, 0.0, 0.0, 0.0, 0.0, 0.0, 1.6292436180469208E9, 2021-08-17 17:40:18.046
164.0, -1269176.34375, 4500000.0, -2104154.4375, 4500000.0, 4500000.0, -1728273.5625, 4500000.0, -1195873.21875, 4500000.0, 4500000.0, 4500000.0, 4500000.0, 4500000.0, 4500000.0, -4500000.375, 4500000.0, -0.03200000151991844, 0.9540000557899475, 0.27800002694129944, 192.0, 127.5, 0.0, 14.5, 104.0, 4.0, 88.0, 0.0, 0.0, 0.0, 1.6292436180469296E9, 2021-08-17 17:40:18.046
166.0, -1267255.3125, 4500000.0, -2104883.0625, 4500000.0, 4500000.0, -1727605.125, 4500000.0, -1193752.59375, 4500000.0, 4500000.0, 4500000.0, 4500000.0, 4500000.0, 4500000.0, -4500000.375, 4500000.0, -0.03200000151991844, 0.9540000557899475, 0.27800002694129944, 192.0, 0.0, 0.0, 0.0, 0.0, 0.0, 0.0, 0.0, 0.0, 0.0, 1.6292436180469391E9, 2021-08-17 17:40:18.046
168.0, -1268862.5625, 4500000.0, -2103690.5625, 4500000.0, 4500000.0, -1727451.5625, 4500000.0, -1194928.5, 4500000.0, 4500000.0, 4500000.0, 4500000.0, 4500000.0, 4500000.0, -4500000.375, 4500000.0, -0.03200000151991844, 0.9540000557899475, 0.27800002694129944, 192.0, 0.0, 0.0, 0.0, 0.0, 0.0, 0.0, 0.0, 0.0, 0.0, 1.62924361804695E9, 2021-08-17 17:40:18.046
170.0, -1267576.6875, 4500000.0, -2105231.25, 4500000.0, 4500000.0, -1727462.4375, 4500000.0, -1193960.8125, 4500000.0, 4500000.0, 4500000.0, 4500000.0, 4500000.0, 4500000.0, -4500000.375, 4500000.0, -0.03200000151991844, 0.9540000557899475, 0.27800002694129944, 192.0, 0.0, 0.0, 0.0, 0.0, 0.0, 0.0, 0.0, 0.0, 0.0, 1.6292436180469587E9, 2021-08-17 17:40:18.046
172.0, -1269349.59375, 4500000.0, -2103647.625, 4500000.0, 4500000.0, -1727362.125, 4500000.0, -1195282.59375, 4500000.0, 4500000.0, 4500000.0, 4500000.0, 4500000.0, 4500000.0, -4500000.375, 4500000.0, -0.03200000151991844, 0.9540000557899475, 0.27800002694129944, 192.0, 0.0, 0.0, 0.0, 0.0, 0.0, 0.0, 0.0, 0.0, 0.0, 1.6292436180469687E9, 2021-08-17 17:40:18.046
174.0, -1267672.6875, 4500000.0, -2105187.75, 4500000.0, 4500000.0, -1727174.25, 4500000.0, -1194149.0625, 4500000.0, 4500000.0, 4500000.0, 4500000.0, 4500000.0, 4500000.0, -4500000.375, 4500000.0, -0.020000001415610313, 0.9500000476837158, 0.2639999985694885, 192.0, 127.5, 48.0, 14.5, 88.0, 4.0, 32.0, 0.0, 0.0, 0.0, 1.6292436180469787E9, 2021-08-17 17:40:18.046
176.0, -1269840.46875, 4500000.0, -2104287.0, 4500000.0, 4500000.0, -1727934.0, 4500000.0, -1196086.6875, 4500000.0, 4500000.0, 4500000.0, 4500000.0, 4500000.0, 4500000.0, -4500000.375, 4500000.0, -0.020000001415610313, 0.9500000476837158, 0.2639999985694885, 192.0, 0.0, 0.0, 0.0, 0.0, 0.0, 0.0, 0.0, 0.0, 0.0, 1.6292436180469863E9, 2021-08-17 17:40:18.046
178.0, -1267648.59375, 4500000.0, -2105327.25, 4500000.0, 4500000.0, -1727149.125, 4500000.0, -1194212.34375, 4500000.0, 4500000.0, 4500000.0, 4500000.0, 4500000.0, 4500000.0, -4500000.375, 4500000.0, -0.020000001415610313, 0.9500000476837158, 0.2639999985694885, 192.0, 0.0, 0.0, 0.0, 0.0, 0.0, 0.0, 0.0, 0.0, 0.0, 1.6292436180469935E9, 2021-08-17 17:40:18.046
180.0, -1269635.53125, 4500000.0, -2104534.875, 4500000.0, 4500000.0, -1727864.25, 4500000.0, -1195812.5625, 4500000.0, 4500000.0, 4500000.0, 4500000.0, 4500000.0, 4500000.0, -4500000.375, 4500000.0, -0.020000001415610313, 0.9500000476837158, 0.2639999985694885, 192.0, 0.0, 0.0, 0.0, 0.0, 0.0, 0.0, 0.0, 0.0, 0.0, 1.6292436180470016E9, 2021-08-17 17:40:18.047
182.0, -1267856.15625, 4500000.0, -2105308.875, 4500000.0, 4500000.0, -1727011.6875, 4500000.0, -1194358.3125, 4500000.0, 4500000.0, 4500000.0, 4500000.0, 4500000.0, 4500000.0, -4500000.375, 4500000.0, -0.018000001087784767, 0.9550000429153442, 0.2540000081062317, 192.0, 127.5, 64.0, 15.0, 0.0, 3.5, 80.0, 0.0, 0.0, 0.0, 1.6292436180470088E9, 2021-08-17 17:40:18.047
184.0, -1270190.71875, 4500000.0, -2105300.4375, 4500000.0, 4500000.0, -1728504.75, 4500000.0, -1196364.0, 4500000.0, 4500000.0, 4500000.0, 4500000.0, 4500000.0, 4500000.0, -4500000.375, 4500000.0, -0.018000001087784767, 0.9550000429153442, 0.2540000081062317, 192.0, 0.0, 0.0, 0.0, 0.0, 0.0, 0.0, 0.0, 0.0, 0.0, 1.6292436180470212E9, 2021-08-17 17:40:18.047
186.0, -1268282.0625, 4500000.0, -2105502.5625, 4500000.0, 4500000.0, -1727356.125, 4500000.0, -1194756.28125, 4500000.0, 4500000.0, 4500000.0, 4500000.0, 4500000.0, 4500000.0, -4500000.375, 4500000.0, -0.018000001087784767, 0.9550000429153442, 0.2540000081062317, 192.0, 0.0, 0.0, 0.0, 0.0, 0.0, 0.0, 0.0, 0.0, 0.0, 1.6292436180470278E9, 2021-08-17 17:40:18.047
188.0, -1269712.78125, 4500000.0, -2105181.1875, 4500000.0, 4500000.0, -1728307.3125, 4500000.0, -1195978.3125, 4500000.0, 4500000.0, 4500000.0, 4500000.0, 4500000.0, 4500000.0, -4500000.375, 4500000.0, -0.018000001087784767, 0.9550000429153442, 0.2540000081062317, 192.0, 0.0, 0.0, 0.0, 0.0, 0.0, 0.0, 0.0, 0.0, 0.0, 1.6292436180470345E9, 2021-08-17 17:40:18.047
190.0, -1268303.0625, 4500000.0, -2105318.625, 4500000.0, 4500000.0, -1727130.9375, 4500000.0, -1194846.46875, 4500000.0, 4500000.0, 4500000.0, 4500000.0, 4500000.0, 4500000.0, -4500000.375, 4500000.0, -0.018000001087784767, 0.9550000429153442, 0.2540000081062317, 192.0, 0.0, 0.0, 0.0, 0.0, 0.0, 0.0, 0.0, 0.0, 0.0, 1.629243618047042E9, 2021-08-17 17:40:18.047
192.0, -1269514.3125, 4500000.0, -2105261.25, 4500000.0, 4500000.0, -1728228.9375, 4500000.0, -1195829.15625, 4500000.0, 4500000.0, 4500000.0, 4500000.0, 4500000.0, 4500000.0, -4500000.375, 4500000.0, -0.020000001415610313, 0.9655000567436218, 0.2410000115633011, 192.0, 127.5, 40.0, 15.0, 64.0, 3.5, 16.0, 0.0, 0.0, 0.0, 1.6292436180470486E9, 2021-08-17 17:40:18.047
194.0, -1268741.8125, 4500000.0, -2105274.0, 4500000.0, 4500000.0, -1727186.625, 4500000.0, -1195086.1875, 4500000.0, 4500000.0, 4500000.0, 4500000.0, 4500000.0, 4500000.0, -4500000.375, 4500000.0, -0.020000001415610313, 0.9655000567436218, 0.2410000115633011, 192.0, 0.0, 0.0, 0.0, 0.0, 0.0, 0.0, 0.0, 0.0, 0.0, 1.6292436180470555E9, 2021-08-17 17:40:18.047
196.0, -1269382.875, 4500000.0, -2105678.0625, 4500000.0, 4500000.0, -1728519.1875, 4500000.0, -1195819.5, 4500000.0, 4500000.0, 4500000.0, 4500000.0, 4500000.0, 4500000.0, -4500000.375, 4500000.0, -0.020000001415610313, 0.9655000567436218, 0.2410000115633011, 192.0, 0.0, 0.0, 0.0, 0.0, 0.0, 0.0, 0.0, 0.0, 0.0, 1.629243618047063E9, 2021-08-17 17:40:18.047
198.0, -1269051.375, 4500000.0, -2105295.5625, 4500000.0, 4500000.0, -1727591.625, 4500000.0, -1195835.625, 4500000.0, 4500000.0, 4500000.0, 4500000.0, 4500000.0, 4500000.0, -4500000.375, 4500000.0, -0.020000001415610313, 0.9655000567436218, 0.2410000115633011, 192.0, 0.0, 0.0, 0.0, 0.0, 0.0, 0.0, 0.0, 0.0, 0.0, 1.6292436180470712E9, 2021-08-17 17:40:18.047
200.0, -1269381.28125, 4500000.0, -2105878.6875, 4500000.0, 4500000.0, -1728501.0, 4500000.0, -1195647.375, 4500000.0, 4500000.0, 4500000.0, 4500000.0, 4500000.0, 4500000.0, -4500000.375, 4500000.0, -0.020000001415610313, 0.9655000567436218, 0.2410000115633011, 192.0, 0.0, 0.0, 0.0, 0.0, 0.0, 0.0, 0.0, 0.0, 0.0, 1.629243618047094E9, 2021-08-17 17:40:18.047
202.0, -1269120.0, 4500000.0, -2104527.375, 4500000.0, 4500000.0, -1727101.875, 4500000.0, -1195078.21875, 4500000.0, 4500000.0, 4500000.0, 4500000.0, 4500000.0, 4500000.0, -4500000.375, 4500000.0, -0.01600000075995922, 0.9767500460147858, 0.2265000119805336, 192.0, 127.5, 80.0, 15.0, 112.0, 3.0, 80.0, 0.0, 0.0, 0.0, 1.6292436180471036E9, 2021-08-17 17:40:18.047
204.0, -1269374.34375, 4500000.0, -2106100.6875, 4500000.0, 4500000.0, -1728507.375, 4500000.0, -1195657.5, 4500000.0, 4500000.0, 4500000.0, 4500000.0, 4500000.0, 4500000.0, -4500000.375, 4500000.0, -0.01600000075995922, 0.9767500460147858, 0.2265000119805336, 192.0, 0.0, 0.0, 0.0, 0.0, 0.0, 0.0, 0.0, 0.0, 0.0, 1.629243618047129E9, 2021-08-17 17:40:18.047
206.0, -1269491.8125, 4500000.0, -2104612.6875, 4500000.0, 4500000.0, -1727212.3125, 4500000.0, -1195583.53125, 4500000.0, 4500000.0, 4500000.0, 4500000.0, 4500000.0, 4500000.0, -4500000.375, 4500000.0, -0.01600000075995922, 0.9767500460147858, 0.2265000119805336, 192.0, 0.0, 0.0, 0.0, 0.0, 0.0, 0.0, 0.0, 0.0, 0.0, 1.6292436180471363E9, 2021-08-17 17:40:18.047
208.0, -1268941.40625, 4500000.0, -2105875.5, 4500000.0, 4500000.0, -1727910.75, 4500000.0, -1194990.1875, 4500000.0, 4500000.0, 4500000.0, 4500000.0, 4500000.0, 4500000.0, -4500000.375, 4500000.0, -0.01600000075995922, 0.9767500460147858, 0.2265000119805336, 192.0, 0.0, 0.0, 0.0, 0.0, 0.0, 0.0, 0.0, 0.0, 0.0, 1.6292436180471451E9, 2021-08-17 17:40:18.047
210.0, -1269846.9375, 4500000.0, -2105077.125, 4500000.0, 4500000.0, -1727658.1875, 4500000.0, -1195593.65625, 4500000.0, 4500000.0, 4500000.0, 4500000.0, 4500000.0, 4500000.0, -4500000.375, 4500000.0, -0.01600000075995922, 0.9767500460147858, 0.2265000119805336, 192.0, 0.0, 0.0, 0.0, 0.0, 0.0, 0.0, 0.0, 0.0, 0.0, 1.6292436180471532E9, 2021-08-17 17:40:18.047
212.0, -1268576.625, 4500000.0, -2106036.9375, 4500000.0, 4500000.0, -1727679.5625, 4500000.0, -1194462.84375, 4500000.0, 4500000.0, 4500000.0, 4500000.0, 4500000.0, 4500000.0, -4500000.375, 4500000.0, -0.01600000075995922, 0.9943750649690628, 0.22625001147389412, 192.0, 127.5, 64.0, 15.5, 80.0, 3.5, 8.0, 0.0, 0.0, 0.0, 1.6292436180471613E9, 2021-08-17 17:40:18.047
214.0, -1269919.3125, 4500000.0, -2105202.1875, 4500000.0, 4500000.0, -1727894.8125, 4500000.0, -1195530.9375, 4500000.0, 4500000.0, 4500000.0, 4500000.0, 4500000.0, 4500000.0, -4500000.375, 4500000.0, -0.01600000075995922, 0.9943750649690628, 0.22625001147389412, 192.0, 0.0, 0.0, 0.0, 0.0, 0.0, 0.0, 0.0, 0.0, 0.0, 1.6292436180471692E9, 2021-08-17 17:40:18.047
216.0, -1268629.6875, 4500000.0, -2106714.9375, 4500000.0, 4500000.0, -1728403.3125, 4500000.0, -1195015.96875, 4500000.0, 4500000.0, 4500000.0, 4500000.0, 4500000.0, 4500000.0, -4500000.375, 4500000.0, -0.01600000075995922, 0.9943750649690628, 0.22625001147389412, 192.0, 0.0, 0.0, 0.0, 0.0, 0.0, 0.0, 0.0, 0.0, 0.0, 1.6292436180471764E9, 2021-08-17 17:40:18.047
218.0, -1270193.4375, 4500000.0, -2105508.0, 4500000.0, 4500000.0, -1728518.625, 4500000.0, -1196471.8125, 4500000.0, 4500000.0, 4500000.0, 4500000.0, 4500000.0, 4500000.0, -4500000.375, 4500000.0, -0.01600000075995922, 0.9943750649690628, 0.22625001147389412, 192.0, 0.0, 0.0, 0.0, 0.0, 0.0, 0.0, 0.0, 0.0, 0.0, 1.6292436180471866E9, 2021-08-17 17:40:18.047
220.0, -1268246.15625, 4500000.0, -2106533.625, 4500000.0, 4500000.0, -1728082.5, 4500000.0, -1194906.0, 4500000.0, 4500000.0, 4500000.0, 4500000.0, 4500000.0, 4500000.0, -4500000.375, 4500000.0, -0.01600000075995922, 0.9943750649690628, 0.22625001147389412, 192.0, 0.0, 0.0, 0.0, 0.0, 0.0, 0.0, 0.0, 0.0, 0.0, 1.629243618047196E9, 2021-08-17 17:40:18.047
222.0, -1270148.34375, 4500000.0, -2105459.0625, 4500000.0, 4500000.0, -1728627.5625, 4500000.0, -1196207.90625, 4500000.0, 4500000.0, 4500000.0, 4500000.0, 4500000.0, 4500000.0, -4500000.375, 4500000.0, -0.02000000048428774, 1.0031875744462013, 0.23412501253187656, 192.0, 127.5, 32.0, 15.5, 80.0, 3.5, 72.0, 0.0, 0.0, 0.0, 1.629243618047206E9, 2021-08-17 17:40:18.047
224.0, -1268268.1875, 4500000.0, -2106313.125, 4500000.0, 4500000.0, -1727881.875, 4500000.0, -1194790.125, 4500000.0, 4500000.0, 4500000.0, 4500000.0, 4500000.0, 4500000.0, -4500000.375, 4500000.0, -0.02000000048428774, 1.0031875744462013, 0.23412501253187656, 192.0, 0.0, 0.0, 0.0, 0.0, 0.0, 0.0, 0.0, 0.0, 0.0, 1.6292436180472178E9, 2021-08-17 17:40:18.047
226.0, -1269977.25, 4500000.0, -2105379.1875, 4500000.0, 4500000.0, -1728501.9375, 4500000.0, -1196220.75, 4500000.0, 4500000.0, 4500000.0, 4500000.0, 4500000.0, 4500000.0, -4500000.375, 4500000.0, -0.02000000048428774, 1.0031875744462013, 0.23412501253187656, 192.0, 0.0, 0.0, 0.0, 0.0, 0.0, 0.0, 0.0, 0.0, 0.0, 1.6292436180472305E9, 2021-08-17 17:40:18.047
228.0, -1268474.15625, 4500000.0, -2106579.1875, 4500000.0, 4500000.0, -1727994.0, 4500000.0, -1195472.4375, 4500000.0, 4500000.0, 4500000.0, 4500000.0, 4500000.0, 4500000.0, -4500000.375, 4500000.0, -0.02000000048428774, 1.0031875744462013, 0.23412501253187656, 192.0, 0.0, 0.0, 0.0, 0.0, 0.0, 0.0, 0.0, 0.0, 0.0, 1.6292436180472414E9, 2021-08-17 17:40:18.047
230.0, -1269947.25, 4500000.0, -2105322.375, 4500000.0, 4500000.0, -1728265.5, 4500000.0, -1195960.59375, 4500000.0, 4500000.0, 4500000.0, 4500000.0, 4500000.0, 4500000.0, -4500000.375, 4500000.0, -0.02000000048428774, 1.0031875744462013, 0.23412501253187656, 192.0, 0.0, 0.0, 0.0, 0.0, 0.0, 0.0, 0.0, 0.0, 0.0, 1.6292436180472543E9, 2021-08-17 17:40:18.047
232.0, -1267764.46875, 4500000.0, -2105893.125, 4500000.0, 4500000.0, -1727168.4375, 4500000.0, -1194214.5, 4500000.0, 4500000.0, 4500000.0, 4500000.0, 4500000.0, 4500000.0, -4500000.375, 4500000.0, -0.02200000174343586, 0.9920000433921814, 0.25200000405311584, 192.0, 127.5, 40.0, 15.5, 0.0, 3.5, 112.0, 0.0, 0.0, 0.0, 1.629243618047264E9, 2021-08-17 17:40:18.047
234.0, -1269565.3125, 4500000.0, -2105342.8125, 4500000.0, 4500000.0, -1728154.3125, 4500000.0, -1195885.5, 4500000.0, 4500000.0, 4500000.0, 4500000.0, 4500000.0, 4500000.0, -4500000.375, 4500000.0, -0.02200000174343586, 0.9920000433921814, 0.25200000405311584, 192.0, 0.0, 0.0, 0.0, 0.0, 0.0, 0.0, 0.0, 0.0, 0.0, 1.6292436180472724E9, 2021-08-17 17:40:18.047
236.0, -1268322.375, 4500000.0, -2106082.5, 4500000.0, 4500000.0, -1727502.5625, 4500000.0, -1195122.1875, 4500000.0, 4500000.0, 4500000.0, 4500000.0, 4500000.0, 4500000.0, -4500000.375, 4500000.0, -0.02200000174343586, 0.9920000433921814, 0.25200000405311584, 192.0, 0.0, 0.0, 0.0, 0.0, 0.0, 0.0, 0.0, 0.0, 0.0, 1.6292436180472806E9, 2021-08-17 17:40:18.047
238.0, -1269490.125, 4500000.0, -2105802.5625, 4500000.0, 4500000.0, -1728621.5625, 4500000.0, -1196072.15625, 4500000.0, 4500000.0, 4500000.0, 4500000.0, 4500000.0, 4500000.0, -4500000.375, 4500000.0, -0.02200000174343586, 0.9920000433921814, 0.25200000405311584, 192.0, 0.0, 0.0, 0.0, 0.0, 0.0, 0.0, 0.0, 0.0, 0.0, 1.6292436180472913E9, 2021-08-17 17:40:18.047
240.0, -1267369.59375, 4500000.0, -2105141.625, 4500000.0, 4500000.0, -1727024.0625, 4500000.0, -1194381.84375, 4500000.0, 4500000.0, 4500000.0, 4500000.0, 4500000.0, 4500000.0, -4500000.375, 4500000.0, -0.02200000174343586, 0.9920000433921814, 0.25200000405311584, 192.0, 0.0, 0.0, 0.0, 0.0, 0.0, 0.0, 0.0, 0.0, 0.0, 1.6292436185258026E9, 2021-08-17 17:40:18.525
242.0, -1268914.03125, 4500000.0, -2105737.5, 4500000.0, 4500000.0, -1728760.5, 4500000.0, -1195810.40625, 4500000.0, 4500000.0, 4500000.0, 4500000.0, 4500000.0, 4500000.0, -4500000.375, 4500000.0, -0.04000000283122063, 0.9920000433921814, 0.27800002694129944, 192.0, 127.0, 96.0, 15.5, 0.0, 4.0, 88.0, 0.0, 0.0, 0.0, 1.6292436185259907E9, 2021-08-17 17:40:18.525
244.0, -1268312.15625, 4500000.0, -2105329.875, 4500000.0, 4500000.0, -1727638.875, 4500000.0, -1194864.09375, 4500000.0, 4500000.0, 4500000.0, 4500000.0, 4500000.0, 4500000.0, -4500000.375, 4500000.0, -0.04000000283122063, 0.9920000433921814, 0.27800002694129944, 192.0, 0.0, 0.0, 0.0, 0.0, 0.0, 0.0, 0.0, 0.0, 0.0, 1.6292436185260012E9, 2021-08-17 17:40:18.526
246.0, -1269348.5625, 4500000.0, -2105941.5, 4500000.0, 4500000.0, -1728924.75, 4500000.0, -1195683.28125, 4500000.0, 4500000.0, 4500000.0, 4500000.0, 4500000.0, 4500000.0, -4500000.375, 4500000.0, -0.04000000283122063, 0.9920000433921814, 0.27800002694129944, 192.0, 0.0, 0.0, 0.0, 0.0, 0.0, 0.0, 0.0, 0.0, 0.0, 1.6292436185260112E9, 2021-08-17 17:40:18.526
248.0, -1268920.96875, 4500000.0, -2105254.3125, 4500000.0, 4500000.0, -1727918.4375, 4500000.0, -1195512.65625, 4500000.0, 4500000.0, 4500000.0, 4500000.0, 4500000.0, 4500000.0, -4500000.375, 4500000.0, -0.04000000283122063, 0.9920000433921814, 0.27800002694129944, 192.0, 0.0, 0.0, 0.0, 0.0, 0.0, 0.0, 0.0, 0.0, 0.0, 1.6292436185260205E9, 2021-08-17 17:40:18.526
250.0, -1269358.21875, 4500000.0, -2106393.1875, 4500000.0, 4500000.0, -1729168.3125, 4500000.0, -1195997.625, 4500000.0, 4500000.0, 4500000.0, 4500000.0, 4500000.0, 4500000.0, -4500000.375, 4500000.0, -0.04000000283122063, 0.9920000433921814, 0.27800002694129944, 192.0, 0.0, 0.0, 0.0, 0.0, 0.0, 0.0, 0.0, 0.0, 0.0, 1.6292436185260305E9, 2021-08-17 17:40:18.526
252.0, -1269082.5, 4500000.0, -2105235.0, 4500000.0, 4500000.0, -1727960.25, 4500000.0, -1195785.75, 4500000.0, 4500000.0, 4500000.0, 4500000.0, 4500000.0, 4500000.0, -4500000.375, 4500000.0, -0.024000000208616257, 0.9600000381469727, 0.3020000159740448, 192.0, 127.5, 32.0, 15.0, 0.0, 4.5, 56.0, 0.0, 0.0, 0.0, 1.6292436185260491E9, 2021-08-17 17:40:18.526
254.0, -1268930.15625, 4500000.0, -2106181.125, 4500000.0, 4500000.0, -1728663.5625, 4500000.0, -1195731.0, 4500000.0, 4500000.0, 4500000.0, 4500000.0, 4500000.0, 4500000.0, -4500000.375, 4500000.0, -0.024000000208616257, 0.9600000381469727, 0.3020000159740448, 192.0, 0.0, 0.0, 0.0, 0.0, 0.0, 0.0, 0.0, 0.0, 0.0, 1.6292436185260584E9, 2021-08-17 17:40:18.526
0.0, -1269201.5625, 4500000.0, -2105194.125, 4500000.0, 4500000.0, -1727923.6875, 4500000.0, -1195607.0625, 4500000.0, 4500000.0, 4500000.0, 4500000.0, 4500000.0, 4500000.0, -4500000.375, 4500000.0, -0.024000000208616257, 0.9600000381469727, 0.3020000159740448, 192.0, 0.0, 0.0, 0.0, 0.0, 0.0, 0.0, 0.0, 0.0, 0.0, 1.629243618526068E9, 2021-08-17 17:40:18.526
2.0, -1268181.75, 4500000.0, -2105938.6875, 4500000.0, 4500000.0, -1727937.1875, 4500000.0, -1194680.625, 4500000.0, 4500000.0, 4500000.0, 4500000.0, 4500000.0, 4500000.0, -4500000.375, 4500000.0, -0.024000000208616257, 0.9600000381469727, 0.3020000159740448, 192.0, 0.0, 0.0, 0.0, 0.0, 0.0, 0.0, 0.0, 0.0, 0.0, 1.6292436185260773E9, 2021-08-17 17:40:18.526
4.0, -1269129.1875, 4500000.0, -2104827.1875, 4500000.0, 4500000.0, -1727412.0, 4500000.0, -1195081.96875, 4500000.0, 4500000.0, 4500000.0, 4500000.0, 4500000.0, 4500000.0, -4500000.375, 4500000.0, -0.024000000208616257, 0.9600000381469727, 0.3020000159740448, 192.0, 0.0, 0.0, 0.0, 0.0, 0.0, 0.0, 0.0, 0.0, 0.0, 1.6292436185260863E9, 2021-08-17 17:40:18.526
6.0, -1267649.625, 4500000.0, -2105744.625, 4500000.0, 4500000.0, -1727336.25, 4500000.0, -1193989.6875, 4500000.0, 4500000.0, 4500000.0, 4500000.0, 4500000.0, 4500000.0, -4500000.375, 4500000.0, -0.004000000189989805, 0.9520000219345093, 0.3240000009536743, 192.0, 127.5, 112.0, 14.5, 96.0, 5.0, 16.0, 0.0, 0.0, 0.0, 1.629243618526096E9, 2021-08-17 17:40:18.526
8.0, -1269558.28125, 4500000.0, -2104953.375, 4500000.0, 4500000.0, -1727742.375, 4500000.0, -1195535.71875, 4500000.0, 4500000.0, 4500000.0, 4500000.0, 4500000.0, 4500000.0, -4500000.375, 4500000.0, -0.004000000189989805, 0.9520000219345093, 0.3240000009536743, 192.0, 0.0, 0.0, 0.0, 0.0, 0.0, 0.0, 0.0, 0.0, 0.0, 1.6292436185261056E9, 2021-08-17 17:40:18.526
10.0, -1267679.15625, 4500000.0, -2105745.5625, 4500000.0, 4500000.0, -1727203.875, 4500000.0, -1194048.75, 4500000.0, 4500000.0, 4500000.0, 4500000.0, 4500000.0, 4500000.0, -4500000.375, 4500000.0, -0.004000000189989805, 0.9520000219345093, 0.3240000009536743, 192.0, 0.0, 0.0, 0.0, 0.0, 0.0, 0.0, 0.0, 0.0, 0.0, 1.6292436185261145E9, 2021-08-17 17:40:18.526
12.0, -1269935.90625, 4500000.0, -2105137.875, 4500000.0, 4500000.0, -1727877.5625, 4500000.0, -1195856.53125, 4500000.0, 4500000.0, 4500000.0, 4500000.0, 4500000.0, 4500000.0, -4500000.375, 4500000.0, -0.004000000189989805, 0.9520000219345093, 0.3240000009536743, 192.0, 0.0, 0.0, 0.0, 0.0, 0.0, 0.0, 0.0, 0.0, 0.0, 1.6292436185261235E9, 2021-08-17 17:40:18.526
14.0, -1267957.59375, 4500000.0, -2105958.0, 4500000.0, 4500000.0, -1727213.4375, 4500000.0, -1194055.21875, 4500000.0, 4500000.0, 4500000.0, 4500000.0, 4500000.0, 4500000.0, -4500000.375, 4500000.0, 9.999999310821295E-4, 0.9600000381469727, 0.3330000042915344, 192.0, 0.0, 24.0, 15.0, 32.0, 5.0, 88.0, 0.0, 0.0, 0.0, 1.6292436185261328E9, 2021-08-17 17:40:18.526
16.0, -1270322.71875, 4500000.0, -2105241.9375, 4500000.0, 4500000.0, -1728237.5625, 4500000.0, -1196010.46875, 4500000.0, 4500000.0, 4500000.0, 4500000.0, 4500000.0, 4500000.0, -4500000.375, 4500000.0, 9.999999310821295E-4, 0.9600000381469727, 0.3330000042915344, 192.0, 0.0, 0.0, 0.0, 0.0, 0.0, 0.0, 0.0, 0.0, 0.0, 1.6292436185261436E9, 2021-08-17 17:40:18.526
18.0, -1268046.5625, 4500000.0, -2105885.625, 4500000.0, 4500000.0, -1727308.875, 4500000.0, -1194049.78125, 4500000.0, 4500000.0, 4500000.0, 4500000.0, 4500000.0, 4500000.0, -4500000.375, 4500000.0, 9.999999310821295E-4, 0.9600000381469727, 0.3330000042915344, 192.0, 0.0, 0.0, 0.0, 0.0, 0.0, 0.0, 0.0, 0.0, 0.0, 1.629243618526153E9, 2021-08-17 17:40:18.526
20.0, -1269832.40625, 4500000.0, -2104982.8125, 4500000.0, 4500000.0, -1728179.625, 4500000.0, -1195807.78125, 4500000.0, 4500000.0, 4500000.0, 4500000.0, 4500000.0, 4500000.0, -4500000.375, 4500000.0, 9.999999310821295E-4, 0.9600000381469727, 0.3330000042915344, 192.0, 0.0, 0.0, 0.0, 0.0, 0.0, 0.0, 0.0, 0.0, 0.0, 1.6292436185261629E9, 2021-08-17 17:40:18.526
22.0, -1267987.59375, 4500000.0, -2105932.3125, 4500000.0, 4500000.0, -1727592.75, 4500000.0, -1194274.59375, 4500000.0, 4500000.0, 4500000.0, 4500000.0, 4500000.0, 4500000.0, -4500000.375, 4500000.0, 9.999999310821295E-4, 0.9600000381469727, 0.3330000042915344, 192.0, 0.0, 0.0, 0.0, 0.0, 0.0, 0.0, 0.0, 0.0, 0.0, 1.6292436185261717E9, 2021-08-17 17:40:18.526
24.0, -1269949.40625, 4500000.0, -2105380.875, 4500000.0, 4500000.0, -1728574.875, 4500000.0, -1195825.96875, 4500000.0, 4500000.0, 4500000.0, 4500000.0, 4500000.0, 4500000.0, -4500000.375, 4500000.0, 0.007500000181607902, 0.9490000307559967, 0.3395000100135803, 192.0, 0.0, 56.0, 14.5, 40.0, 5.0, 104.0, 0.0, 0.0, 0.0, 1.62924361852618E9, 2021-08-17 17:40:18.526
26.0, -1267973.15625, 4500000.0, -2105726.8125, 4500000.0, 4500000.0, -1727367.375, 4500000.0, -1194380.8125, 4500000.0, 4500000.0, 4500000.0, 4500000.0, 4500000.0, 4500000.0, -4500000.375, 4500000.0, 0.007500000181607902, 0.9490000307559967, 0.3395000100135803, 192.0, 0.0, 0.0, 0.0, 0.0, 0.0, 0.0, 0.0, 0.0, 0.0, 1.6292436185261884E9, 2021-08-17 17:40:18.526
28.0, -1270075.40625, 4500000.0, -2105703.1875, 4500000.0, 4500000.0, -1728825.5625, 4500000.0, -1196171.4375, 4500000.0, 4500000.0, 4500000.0, 4500000.0, 4500000.0, 4500000.0, -4500000.375, 4500000.0, 0.007500000181607902, 0.9490000307559967, 0.3395000100135803, 192.0, 0.0, 0.0, 0.0, 0.0, 0.0, 0.0, 0.0, 0.0, 0.0, 1.6292436185261972E9, 2021-08-17 17:40:18.526
30.0, -1268489.15625, 4500000.0, -2105888.25, 4500000.0, 4500000.0, -1727661.9375, 4500000.0, -1194565.875, 4500000.0, 4500000.0, 4500000.0, 4500000.0, 4500000.0, 4500000.0, -4500000.375, 4500000.0, 0.007500000181607902, 0.9490000307559967, 0.3395000100135803, 192.0, 0.0, 0.0, 0.0, 0.0, 0.0, 0.0, 0.0, 0.0, 0.0, 1.6292436185262113E9, 2021-08-17 17:40:18.526
32.0, -1269968.15625, 4500000.0, -2106026.25, 4500000.0, 4500000.0, -1729072.3125, 4500000.0, -1196295.9375, 4500000.0, 4500000.0, 4500000.0, 4500000.0, 4500000.0, 4500000.0, -4500000.375, 4500000.0, 0.007500000181607902, 0.9490000307559967, 0.3395000100135803, 192.0, 0.0, 0.0, 0.0, 0.0, 0.0, 0.0, 0.0, 0.0, 0.0, 1.6292436185262208E9, 2021-08-17 17:40:18.526
34.0, -1268749.875, 4500000.0, -2106091.125, 4500000.0, 4500000.0, -1728002.625, 4500000.0, -1194895.78125, 4500000.0, 4500000.0, 4500000.0, 4500000.0, 4500000.0, 4500000.0, -4500000.375, 4500000.0, 0.007750000280793756, 0.9395000487565994, 0.3437500149011612, 192.0, 0.0, 32.0, 14.5, 8.0, 5.0, 112.0, 0.0, 0.0, 0.0, 1.6292436185262299E9, 2021-08-17 17:40:18.526
36.0, -1269783.5625, 4500000.0, -2106136.6875, 4500000.0, 4500000.0, -1729046.4375, 4500000.0, -1195768.03125, 4500000.0, 4500000.0, 4500000.0, 4500000.0, 4500000.0, 4500000.0, -4500000.375, 4500000.0, 0.007750000280793756, 0.9395000487565994, 0.3437500149011612, 192.0, 0.0, 0.0, 0.0, 0.0, 0.0, 0.0, 0.0, 0.0, 0.0, 1.6292436185262396E9, 2021-08-17 17:40:18.526
38.0, -1268511.1875, 4500000.0, -2105536.3125, 4500000.0, 4500000.0, -1727493.5625, 4500000.0, -1194619.5, 4500000.0, 4500000.0, 4500000.0, 4500000.0, 4500000.0, 4500000.0, -4500000.375, 4500000.0, 0.007750000280793756, 0.9395000487565994, 0.3437500149011612, 192.0, 0.0, 0.0, 0.0, 0.0, 0.0, 0.0, 0.0, 0.0, 0.0, 1.629243618526248E9, 2021-08-17 17:40:18.526
40.0, -1269638.71875, 4500000.0, -2106557.25, 4500000.0, 4500000.0, -1729031.4375, 4500000.0, -1195804.5, 4500000.0, 4500000.0, 4500000.0, 4500000.0, 4500000.0, 4500000.0, -4500000.375, 4500000.0, 0.007750000280793756, 0.9395000487565994, 0.3437500149011612, 192.0, 0.0, 0.0, 0.0, 0.0, 0.0, 0.0, 0.0, 0.0, 0.0, 1.6292436185262568E9, 2021-08-17 17:40:18.526
42.0, -1269349.59375, 4500000.0, -2105753.0625, 4500000.0, 4500000.0, -1727977.3125, 4500000.0, -1195351.21875, 4500000.0, 4500000.0, 4500000.0, 4500000.0, 4500000.0, 4500000.0, -4500000.375, 4500000.0, 0.007750000280793756, 0.9395000487565994, 0.3437500149011612, 192.0, 0.0, 0.0, 0.0, 0.0, 0.0, 0.0, 0.0, 0.0, 0.0, 1.6292436185262651E9, 2021-08-17 17:40:18.526
44.0, -1269304.59375, 4500000.0, -2106701.625, 4500000.0, 4500000.0, -1729126.875, 4500000.0, -1195530.375, 4500000.0, 4500000.0, 4500000.0, 4500000.0, 4500000.0, 4500000.0, -4500000.375, 4500000.0, 0.007750000280793756, 0.9395000487565994, 0.3437500149011612, 192.0, 0.0, 0.0, 14.5, 112.0, 5.5, 0.0, 0.0, 0.0, 0.0, 1.6292436185262747E9, 2021-08-17 17:40:18.526
46.0, -1269322.21875, 4500000.0, -2105646.375, 4500000.0, 4500000.0, -1727999.4375, 4500000.0, -1195529.8125, 4500000.0, 4500000.0, 4500000.0, 4500000.0, 4500000.0, 4500000.0, -4500000.375, 4500000.0, 0.007750000280793756, 0.9395000487565994, 0.3437500149011612, 192.0, 0.0, 0.0, 0.0, 0.0, 0.0, 0.0, 0.0, 0.0, 0.0, 1.6292436185262847E9, 2021-08-17 17:40:18.526
48.0, -1268757.9375, 4500000.0, -2106445.125, 4500000.0, 4500000.0, -1728588.375, 4500000.0, -1195255.21875, 4500000.0, 4500000.0, 4500000.0, 4500000.0, 4500000.0, 4500000.0, -4500000.375, 4500000.0, 0.007750000280793756, 0.9395000487565994, 0.3437500149011612, 192.0, 0.0, 0.0, 0.0, 0.0, 0.0, 0.0, 0.0, 0.0, 0.0, 1.629243618526294E9, 2021-08-17 17:40:18.526
50.0, -1269177.9375, 4500000.0, -2105312.25, 4500000.0, 4500000.0, -1727792.8125, 4500000.0, -1195214.4375, 4500000.0, 4500000.0, 4500000.0, 4500000.0, 4500000.0, 4500000.0, -4500000.375, 4500000.0, 0.007750000280793756, 0.9395000487565994, 0.3437500149011612, 192.0, 0.0, 0.0, 0.0, 0.0, 0.0, 0.0, 0.0, 0.0, 0.0, 1.6292436185263023E9, 2021-08-17 17:40:18.526
52.0, -1268395.78125, 4500000.0, -2106512.8125, 4500000.0, 4500000.0, -1728400.125, 4500000.0, -1194781.5, 4500000.0, 4500000.0, 4500000.0, 4500000.0, 4500000.0, 4500000.0, -4500000.375, 4500000.0, 0.007750000280793756, 0.9395000487565994, 0.3437500149011612, 192.0, 0.0, 0.0, 0.0, 0.0, 0.0, 0.0, 0.0, 0.0, 0.0, 1.6292436185263114E9, 2021-08-17 17:40:18.526
54.0, -1269881.8125, 4500000.0, -2105420.0625, 4500000.0, 4500000.0, -1728316.875, 4500000.0, -1195809.84375, 4500000.0, 4500000.0, 4500000.0, 4500000.0, 4500000.0, 4500000.0, -4500000.375, 4500000.0, -1.250000495929271E-4, 0.9487500563263893, 0.3538750186562538, 192.0, 127.5, 96.0, 14.5, 120.0, 5.5, 48.0, 0.0, 0.0, 0.0, 1.6292436185263202E9, 2021-08-17 17:40:18.526
56.0, -1268470.40625, 4500000.0, -2106408.5625, 4500000.0, 4500000.0, -1728397.3125, 4500000.0, -1194690.28125, 4500000.0, 4500000.0, 4500000.0, 4500000.0, 4500000.0, 4500000.0, -4500000.375, 4500000.0, -1.250000495929271E-4, 0.9487500563263893, 0.3538750186562538, 192.0, 0.0, 0.0, 0.0, 0.0, 0.0, 0.0, 0.0, 0.0, 0.0, 1.6292436185263288E9, 2021-08-17 17:40:18.526
58.0, -1270074.375, 4500000.0, -2105723.0625, 4500000.0, 4500000.0, -1728951.5625, 4500000.0, -1195944.0, 4500000.0, 4500000.0, 4500000.0, 4500000.0, 4500000.0, 4500000.0, -4500000.375, 4500000.0, -1.250000495929271E-4, 0.9487500563263893, 0.3538750186562538, 192.0, 0.0, 0.0, 0.0, 0.0, 0.0, 0.0, 0.0, 0.0, 0.0, 1.629243618526338E9, 2021-08-17 17:40:18.526
60.0, -1268629.6875, 4500000.0, -2107049.625, 4500000.0, 4500000.0, -1729099.125, 4500000.0, -1194962.34375, 4500000.0, 4500000.0, 4500000.0, 4500000.0, 4500000.0, 4500000.0, -4500000.375, 4500000.0, -1.250000495929271E-4, 0.9487500563263893, 0.3538750186562538, 192.0, 0.0, 0.0, 0.0, 0.0, 0.0, 0.0, 0.0, 0.0, 0.0, 1.6292436185263467E9, 2021-08-17 17:40:18.526
62.0, -1270148.90625, 4500000.0, -2105748.75, 4500000.0, 4500000.0, -1729207.875, 4500000.0, -1196028.1875, 4500000.0, 4500000.0, 4500000.0, 4500000.0, 4500000.0, 4500000.0, -4500000.375, 4500000.0, -1.250000495929271E-4, 0.9487500563263893, 0.3538750186562538, 192.0, 0.0, 0.0, 0.0, 0.0, 0.0, 0.0, 0.0, 0.0, 0.0, 1.6292436185263565E9, 2021-08-17 17:40:18.526
64.0, -1268418.9375, 4500000.0, -2106938.625, 4500000.0, 4500000.0, -1728850.6875, 4500000.0, -1194796.03125, 4500000.0, 4500000.0, 4500000.0, 4500000.0, 4500000.0, 4500000.0, -4500000.375, 4500000.0, -0.024000000208616257, 0.9460000395774841, 0.37400001287460327, 192.0, 127.5, 32.0, 14.5, 72.0, 5.5, 88.0, 0.0, 0.0, 0.0, 1.6292436185263753E9, 2021-08-17 17:40:18.526
66.0, -1270024.5, 4500000.0, -2105503.6875, 4500000.0, 4500000.0, -1728910.3125, 4500000.0, -1195823.8125, 4500000.0, 4500000.0, 4500000.0, 4500000.0, 4500000.0, 4500000.0, -4500000.375, 4500000.0, -0.024000000208616257, 0.9460000395774841, 0.37400001287460327, 192.0, 0.0, 0.0, 0.0, 0.0, 0.0, 0.0, 0.0, 0.0, 0.0, 1.6292436185263836E9, 2021-08-17 17:40:18.526
68.0, -1268666.15625, 4500000.0, -2106857.0625, 4500000.0, 4500000.0, -1728630.1875, 4500000.0, -1194858.1875, 4500000.0, 4500000.0, 4500000.0, 4500000.0, 4500000.0, 4500000.0, -4500000.375, 4500000.0, -0.024000000208616257, 0.9460000395774841, 0.37400001287460327, 192.0, 0.0, 0.0, 0.0, 0.0, 0.0, 0.0, 0.0, 0.0, 0.0, 1.6292436185263925E9, 2021-08-17 17:40:18.526
70.0, -1270679.4375, 4500000.0, -2106136.6875, 4500000.0, 4500000.0, -1729474.5, 4500000.0, -1196690.71875, 4500000.0, 4500000.0, 4500000.0, 4500000.0, 4500000.0, 4500000.0, -4500000.375, 4500000.0, -0.024000000208616257, 0.9460000395774841, 0.37400001287460327, 192.0, 0.0, 0.0, 0.0, 0.0, 0.0, 0.0, 0.0, 0.0, 0.0, 1.6292436185264015E9, 2021-08-17 17:40:18.526
72.0, -1268528.34375, 4500000.0, -2106617.8125, 4500000.0, 4500000.0, -1728436.5, 4500000.0, -1195250.34375, 4500000.0, 4500000.0, 4500000.0, 4500000.0, 4500000.0, 4500000.0, -4500000.375, 4500000.0, -0.024000000208616257, 0.9460000395774841, 0.37400001287460327, 192.0, 0.0, 0.0, 0.0, 0.0, 0.0, 0.0, 0.0, 0.0, 0.0, 1.6292436185264103E9, 2021-08-17 17:40:18.526
74.0, -1270665.46875, 4500000.0, -2106318.0, 4500000.0, 4500000.0, -1729764.75, 4500000.0, -1196715.9375, 4500000.0, 4500000.0, 4500000.0, 4500000.0, 4500000.0, 4500000.0, -4500000.375, 4500000.0, -0.02200000174343586, 0.9360000491142273, 0.3840000033378601, 192.0, 127.5, 40.0, 14.5, 32.0, 6.0, 0.0, 0.0, 0.0, 0.0, 1.6292436185264192E9, 2021-08-17 17:40:18.526
76.0, -1268624.90625, 4500000.0, -2106445.125, 4500000.0, 4500000.0, -1728488.0625, 4500000.0, -1195155.46875, 4500000.0, 4500000.0, 4500000.0, 4500000.0, 4500000.0, 4500000.0, -4500000.375, 4500000.0, -0.02200000174343586, 0.9360000491142273, 0.3840000033378601, 192.0, 0.0, 0.0, 0.0, 0.0, 0.0, 0.0, 0.0, 0.0, 0.0, 1.6292436185264275E9, 2021-08-17 17:40:18.526
78.0, -1269692.90625, 4500000.0, -2105699.4375, 4500000.0, 4500000.0, -1728906.5625, 4500000.0, -1195731.5625, 4500000.0, 4500000.0, 4500000.0, 4500000.0, 4500000.0, 4500000.0, -4500000.375, 4500000.0, -0.02200000174343586, 0.9360000491142273, 0.3840000033378601, 192.0, 0.0, 0.0, 0.0, 0.0, 0.0, 0.0, 0.0, 0.0, 0.0, 1.629243618526436E9, 2021-08-17 17:40:18.526
80.0, -1268484.375, 4500000.0, -2106203.25, 4500000.0, 4500000.0, -1727846.4375, 4500000.0, -1194856.125, 4500000.0, 4500000.0, 4500000.0, 4500000.0, 4500000.0, 4500000.0, -4500000.375, 4500000.0, -0.02200000174343586, 0.9360000491142273, 0.3840000033378601, 192.0, 0.0, 0.0, 0.0, 0.0, 0.0, 0.0, 0.0, 0.0, 0.0, 1.6292436185264447E9, 2021-08-17 17:40:18.526
82.0, -1269989.625, 4500000.0, -2106138.375, 4500000.0, 4500000.0, -1728712.875, 4500000.0, -1196011.03125, 4500000.0, 4500000.0, 4500000.0, 4500000.0, 4500000.0, 4500000.0, -4500000.375, 4500000.0, -0.02200000174343586, 0.9360000491142273, 0.3840000033378601, 192.0, 0.0, 0.0, 0.0, 0.0, 0.0, 0.0, 0.0, 0.0, 0.0, 1.6292436185264533E9, 2021-08-17 17:40:18.526
84.0, -1268690.34375, 4500000.0, -2105461.3125, 4500000.0, 4500000.0, -1726937.25, 4500000.0, -1194506.90625, 4500000.0, 4500000.0, 4500000.0, 4500000.0, 4500000.0, 4500000.0, -4500000.375, 4500000.0, -0.010000000707805157, 0.9200000166893005, 0.3880000114440918, 192.0, 127.5, 88.0, 14.0, 96.0, 6.0, 16.0, 0.0, 0.0, 0.0, 1.6292436185264616E9, 2021-08-17 17:40:18.526
86.0, -1270046.4375, 4500000.0, -2106291.75, 4500000.0, 4500000.0, -1728677.4375, 4500000.0, -1195879.59375, 4500000.0, 4500000.0, 4500000.0, 4500000.0, 4500000.0, 4500000.0, -4500000.375, 4500000.0, -0.010000000707805157, 0.9200000166893005, 0.3880000114440918, 192.0, 0.0, 0.0, 0.0, 0.0, 0.0, 0.0, 0.0, 0.0, 0.0, 1.629243618526471E9, 2021-08-17 17:40:18.526
88.0, -1268870.0625, 4500000.0, -2105476.3125, 4500000.0, 4500000.0, -1727116.3125, 4500000.0, -1194873.75, 4500000.0, 4500000.0, 4500000.0, 4500000.0, 4500000.0, 4500000.0, -4500000.375, 4500000.0, -0.010000000707805157, 0.9200000166893005, 0.3880000114440918, 192.0, 0.0, 0.0, 0.0, 0.0, 0.0, 0.0, 0.0, 0.0, 0.0, 1.629243618526481E9, 2021-08-17 17:40:18.526
90.0, -1269338.90625, 4500000.0, -2106111.375, 4500000.0, 4500000.0, -1728220.3125, 4500000.0, -1195126.96875, 4500000.0, 4500000.0, 4500000.0, 4500000.0, 4500000.0, 4500000.0, -4500000.375, 4500000.0, -0.010000000707805157, 0.9200000166893005, 0.3880000114440918, 192.0, 0.0, 0.0, 0.0, 0.0, 0.0, 0.0, 0.0, 0.0, 0.0, 1.6292436185264895E9, 2021-08-17 17:40:18.526
92.0, -1269330.84375, 4500000.0, -2105456.4375, 4500000.0, 4500000.0, -1727231.625, 4500000.0, -1195148.4375, 4500000.0, 4500000.0, 4500000.0, 4500000.0, 4500000.0, 4500000.0, -4500000.375, 4500000.0, -0.010000000707805157, 0.9200000166893005, 0.3880000114440918, 192.0, 0.0, 0.0, 0.0, 0.0, 0.0, 0.0, 0.0, 0.0, 0.0, 1.6292436185264995E9, 2021-08-17 17:40:18.526
94.0, -1269560.4375, 4500000.0, -2106498.75, 4500000.0, 4500000.0, -1728363.0, 4500000.0, -1195296.0, 4500000.0, 4500000.0, 4500000.0, 4500000.0, 4500000.0, 4500000.0, -4500000.375, 4500000.0, 0.006000000052154064, 0.9300000667572021, 0.3880000114440918, 192.0, 0.0, 24.0, 14.5, 8.0, 6.0, 16.0, 0.0, 0.0, 0.0, 1.6292436185265093E9, 2021-08-17 17:40:18.526
96.0, -1269558.28125, 4500000.0, -2105224.125, 4500000.0, 4500000.0, -1727209.6875, 4500000.0, -1195158.09375, 4500000.0, 4500000.0, 4500000.0, 4500000.0, 4500000.0, 4500000.0, -4500000.375, 4500000.0, 0.006000000052154064, 0.9300000667572021, 0.3880000114440918, 192.0, 0.0, 0.0, 0.0, 0.0, 0.0, 0.0, 0.0, 0.0, 0.0, 1.629243618526518E9, 2021-08-17 17:40:18.526
98.0, -1269075.46875, 4500000.0, -2106126.0, 4500000.0, 4500000.0, -1727757.9375, 4500000.0, -1194741.28125, 4500000.0, 4500000.0, 4500000.0, 4500000.0, 4500000.0, 4500000.0, -4500000.375, 4500000.0, 0.006000000052154064, 0.9300000667572021, 0.3880000114440918, 192.0, 0.0, 0.0, 0.0, 0.0, 0.0, 0.0, 0.0, 0.0, 0.0, 1.6292436185265312E9, 2021-08-17 17:40:18.526
100.0, -1269609.75, 4500000.0, -2104905.5625, 4500000.0, 4500000.0, -1727096.0625, 4500000.0, -1195219.21875, 4500000.0, 4500000.0, 4500000.0, 4500000.0, 4500000.0, 4500000.0, -4500000.375, 4500000.0, 0.006000000052154064, 0.9300000667572021, 0.3880000114440918, 192.0, 0.0, 0.0, 0.0, 0.0, 0.0, 0.0, 0.0, 0.0, 0.0, 1.62924361852654E9, 2021-08-17 17:40:18.526
102.0, -1268806.21875, 4500000.0, -2106474.5625, 4500000.0, 4500000.0, -1727857.6875, 4500000.0, -1194769.6875, 4500000.0, 4500000.0, 4500000.0, 4500000.0, 4500000.0, 4500000.0, -4500000.375, 4500000.0, 0.009000000078231096, 0.9380000531673431, 0.39400000870227814, 192.0, 0.0, 48.0, 14.5, 72.0, 6.0, 64.0, 0.0, 0.0, 0.0, 1.6292436185265484E9, 2021-08-17 17:40:18.526
104.0, -1269844.78125, 4500000.0, -2105054.0625, 4500000.0, 4500000.0, -1727395.875, 4500000.0, -1195865.625, 4500000.0, 4500000.0, 4500000.0, 4500000.0, 4500000.0, 4500000.0, -4500000.375, 4500000.0, 0.009000000078231096, 0.9380000531673431, 0.39400000870227814, 192.0, 0.0, 0.0, 0.0, 0.0, 0.0, 0.0, 0.0, 0.0, 0.0, 1.6292436189685242E9, 2021-08-17 17:40:18.968
106.0, -1268680.6875, 4500000.0, -2106559.3125, 4500000.0, 4500000.0, -1727903.25, 4500000.0, -1194644.71875, 4500000.0, 4500000.0, 4500000.0, 4500000.0, 4500000.0, 4500000.0, -4500000.375, 4500000.0, 0.009000000078231096, 0.9380000531673431, 0.39400000870227814, 192.0, 0.0, 0.0, 0.0, 0.0, 0.0, 0.0, 0.0, 0.0, 0.0, 1.6292436189686623E9, 2021-08-17 17:40:18.968
108.0, -1270395.65625, 4500000.0, -2105488.125, 4500000.0, 4500000.0, -1728169.5, 4500000.0, -1195787.90625, 4500000.0, 4500000.0, 4500000.0, 4500000.0, 4500000.0, 4500000.0, -4500000.375, 4500000.0, 0.009000000078231096, 0.9380000531673431, 0.39400000870227814, 192.0, 0.0, 0.0, 0.0, 0.0, 0.0, 0.0, 0.0, 0.0, 0.0, 1.6292436189687393E9, 2021-08-17 17:40:18.968
110.0, -1268519.25, 4500000.0, -2106656.4375, 4500000.0, 4500000.0, -1728094.875, 4500000.0, -1194506.90625, 4500000.0, 4500000.0, 4500000.0, 4500000.0, 4500000.0, 4500000.0, -4500000.375, 4500000.0, 0.009000000078231096, 0.9380000531673431, 0.39400000870227814, 192.0, 0.0, 0.0, 0.0, 0.0, 0.0, 0.0, 0.0, 0.0, 0.0, 1.6292436189687479E9, 2021-08-17 17:40:18.968
112.0, -1270475.625, 4500000.0, -2105611.5, 4500000.0, 4500000.0, -1728677.4375, 4500000.0, -1196197.21875, 4500000.0, 4500000.0, 4500000.0, 4500000.0, 4500000.0, 4500000.0, -4500000.375, 4500000.0, 0.006500000134110451, 0.9390000551939011, 0.39800000935792923, 192.0, 0.0, 16.0, 14.5, 48.0, 6.0, 72.0, 0.0, 0.0, 0.0, 1.6292436189687586E9, 2021-08-17 17:40:18.968
114.0, -1268717.15625, 4500000.0, -2106806.625, 4500000.0, 4500000.0, -1728334.125, 4500000.0, -1194631.875, 4500000.0, 4500000.0, 4500000.0, 4500000.0, 4500000.0, 4500000.0, -4500000.375, 4500000.0, 0.006500000134110451, 0.9390000551939011, 0.39800000935792923, 192.0, 0.0, 0.0, 0.0, 0.0, 0.0, 0.0, 0.0, 0.0, 0.0, 1.629243618968766E9, 2021-08-17 17:40:18.968
116.0, -1270364.53125, 4500000.0, -2105489.25, 4500000.0, 4500000.0, -1728648.0, 4500000.0, -1195740.1875, 4500000.0, 4500000.0, 4500000.0, 4500000.0, 4500000.0, 4500000.0, -4500000.375, 4500000.0, 0.006500000134110451, 0.9390000551939011, 0.39800000935792923, 192.0, 0.0, 0.0, 0.0, 0.0, 0.0, 0.0, 0.0, 0.0, 0.0, 1.6292436189687736E9, 2021-08-17 17:40:18.968
118.0, -1268771.90625, 4500000.0, -2106712.875, 4500000.0, 4500000.0, -1728290.0625, 4500000.0, -1194431.25, 4500000.0, 4500000.0, 4500000.0, 4500000.0, 4500000.0, 4500000.0, -4500000.375, 4500000.0, 0.006500000134110451, 0.9390000551939011, 0.39800000935792923, 192.0, 0.0, 0.0, 0.0, 0.0, 0.0, 0.0, 0.0, 0.0, 0.0, 1.629243618968782E9, 2021-08-17 17:40:18.968
120.0, -1270379.625, 4500000.0, -2105777.8125, 4500000.0, 4500000.0, -1729008.375, 4500000.0, -1195938.65625, 4500000.0, 4500000.0, 4500000.0, 4500000.0, 4500000.0, 4500000.0, -4500000.375, 4500000.0, 0.006500000134110451, 0.9390000551939011, 0.39800000935792923, 192.0, 0.0, 0.0, 0.0, 0.0, 0.0, 0.0, 0.0, 0.0, 0.0, 1.629243618968789E9, 2021-08-17 17:40:18.968
122.0, -1268647.40625, 4500000.0, -2106564.1875, 4500000.0, 4500000.0, -1728320.625, 4500000.0, -1194363.09375, 4500000.0, 4500000.0, 4500000.0, 4500000.0, 4500000.0, 4500000.0, -4500000.375, 4500000.0, 0.004250000114552677, 0.9345000609755516, 0.4050000198185444, 192.0, 0.0, 8.0, 14.5, 8.0, 6.0, 112.0, 0.0, 0.0, 0.0, 1.6292436189687982E9, 2021-08-17 17:40:18.968
124.0, -1270127.4375, 4500000.0, -2106144.1875, 4500000.0, 4500000.0, -1729555.5, 4500000.0, -1195893.5625, 4500000.0, 4500000.0, 4500000.0, 4500000.0, 4500000.0, 4500000.0, -4500000.375, 4500000.0, 0.004250000114552677, 0.9345000609755516, 0.4050000198185444, 192.0, 0.0, 0.0, 0.0, 0.0, 0.0, 0.0, 0.0, 0.0, 0.0, 1.629243618968806E9, 2021-08-17 17:40:18.968
126.0, -1268403.375, 4500000.0, -2106424.6875, 4500000.0, 4500000.0, -1728368.4375, 4500000.0, -1193944.6875, 4500000.0, 4500000.0, 4500000.0, 4500000.0, 4500000.0, 4500000.0, -4500000.375, 4500000.0, 0.004250000114552677, 0.9345000609755516, 0.4050000198185444, 192.0, 0.0, 0.0, 0.0, 0.0, 0.0, 0.0, 0.0, 0.0, 0.0, 1.6292436189688137E9, 2021-08-17 17:40:18.968
128.0, -1270377.9375, 4500000.0, -2106770.25, 4500000.0, 4500000.0, -1730183.25, 4500000.0, -1196071.125, 4500000.0, 4500000.0, 4500000.0, 4500000.0, 4500000.0, 4500000.0, -4500000.375, 4500000.0, 0.004250000114552677, 0.9345000609755516, 0.4050000198185444, 192.0, 0.0, 0.0, 0.0, 0.0, 0.0, 0.0, 0.0, 0.0, 0.0, 1.6292436189688213E9, 2021-08-17 17:40:18.968
130.0, -1268772.9375, 4500000.0, -2106484.875, 4500000.0, 4500000.0, -1728835.125, 4500000.0, -1194785.25, 4500000.0, 4500000.0, 4500000.0, 4500000.0, 4500000.0, 4500000.0, -4500000.375, 4500000.0, 0.004250000114552677, 0.9345000609755516, 0.4050000198185444, 192.0, 0.0, 0.0, 0.0, 0.0, 0.0, 0.0, 0.0, 0.0, 0.0, 1.629243618968829E9, 2021-08-17 17:40:18.968
132.0, -1270227.75, 4500000.0, -2106733.125, 4500000.0, 4500000.0, -1730196.5625, 4500000.0, -1195958.4375, 4500000.0, 4500000.0, 4500000.0, 4500000.0, 4500000.0, 4500000.0, -4500000.375, 4500000.0, 0.004250000114552677, 0.9345000609755516, 0.4050000198185444, 192.0, 0.0, 0.0, 14.0, 112.0, 6.0, 112.0, 0.0, 0.0, 0.0, 1.6292436189688764E9, 2021-08-17 17:40:18.968
134.0, -1268892.0, 4500000.0, -2106177.0, 4500000.0, 4500000.0, -1728567.0, 4500000.0, -1194680.625, 4500000.0, 4500000.0, 4500000.0, 4500000.0, 4500000.0, 4500000.0, -4500000.375, 4500000.0, 0.004250000114552677, 0.9345000609755516, 0.4050000198185444, 192.0, 0.0, 0.0, 0.0, 0.0, 0.0, 0.0, 0.0, 0.0, 0.0, 1.629243618968884E9, 2021-08-17 17:40:18.968
136.0, -1269603.9375, 4500000.0, -2106438.75, 4500000.0, 4500000.0, -1729475.0625, 4500000.0, -1195277.15625, 4500000.0, 4500000.0, 4500000.0, 4500000.0, 4500000.0, 4500000.0, -4500000.375, 4500000.0, 0.004250000114552677, 0.9345000609755516, 0.4050000198185444, 192.0, 0.0, 0.0, 0.0, 0.0, 0.0, 0.0, 0.0, 0.0, 0.0, 1.6292436189688923E9, 2021-08-17 17:40:18.968
138.0, -1269156.0, 4500000.0, -2106261.1875, 4500000.0, 4500000.0, -1728601.3125, 4500000.0, -1195197.28125, 4500000.0, 4500000.0, 4500000.0, 4500000.0, 4500000.0, 4500000.0, -4500000.375, 4500000.0, 0.004250000114552677, 0.9345000609755516, 0.4050000198185444, 192.0, 0.0, 0.0, 0.0, 0.0, 0.0, 0.0, 0.0, 0.0, 0.0, 1.6292436189688995E9, 2021-08-17 17:40:18.968
140.0, -1270053.46875, 4500000.0, -2107008.9375, 4500000.0, 4500000.0, -1729512.75, 4500000.0, -1195780.875, 4500000.0, 4500000.0, 4500000.0, 4500000.0, 4500000.0, 4500000.0, -4500000.375, 4500000.0, 0.004250000114552677, 0.9345000609755516, 0.4050000198185444, 192.0, 0.0, 0.0, 0.0, 0.0, 0.0, 0.0, 0.0, 0.0, 0.0, 1.629243618968907E9, 2021-08-17 17:40:18.968
142.0, -1270235.25, 4500000.0, -2106597.5625, 4500000.0, 4500000.0, -1728889.875, 4500000.0, -1195729.40625, 4500000.0, 4500000.0, 4500000.0, 4500000.0, 4500000.0, 4500000.0, -4500000.375, 4500000.0, 0.004250000114552677, 0.9345000609755516, 0.4050000198185444, 192.0, 0.0, 0.0, 14.0, 96.0, 6.0, 56.0, 0.0, 0.0, 0.0, 1.6292436189689145E9, 2021-08-17 17:40:18.968
144.0, -1269661.3125, 4500000.0, -2106923.625, 4500000.0, 4500000.0, -1729112.4375, 4500000.0, -1194886.6875, 4500000.0, 4500000.0, 4500000.0, 4500000.0, 4500000.0, 4500000.0, -4500000.375, 4500000.0, 0.004250000114552677, 0.9345000609755516, 0.4050000198185444, 192.0, 0.0, 0.0, 0.0, 0.0, 0.0, 0.0, 0.0, 0.0, 0.0, 1.6292436189689343E9, 2021-08-17 17:40:18.968
146.0, -1269875.90625, 4500000.0, -2105740.3125, 4500000.0, 4500000.0, -1728192.5625, 4500000.0, -1195342.59375, 4500000.0, 4500000.0, 4500000.0, 4500000.0, 4500000.0, 4500000.0, -4500000.375, 4500000.0, 0.004250000114552677, 0.9345000609755516, 0.4050000198185444, 192.0, 0.0, 0.0, 0.0, 0.0, 0.0, 0.0, 0.0, 0.0, 0.0, 1.6292436189689548E9, 2021-08-17 17:40:18.968
148.0, -1269518.625, 4500000.0, -2107060.875, 4500000.0, 4500000.0, -1729033.125, 4500000.0, -1195124.8125, 4500000.0, 4500000.0, 4500000.0, 4500000.0, 4500000.0, 4500000.0, -4500000.375, 4500000.0, 0.004250000114552677, 0.9345000609755516, 0.4050000198185444, 192.0, 0.0, 0.0, 0.0, 0.0, 0.0, 0.0, 0.0, 0.0, 0.0, 1.6292436189689615E9, 2021-08-17 17:40:18.968
150.0, -1270191.28125, 4500000.0, -2105872.125, 4500000.0, 4500000.0, -1728708.0, 4500000.0, -1195822.21875, 4500000.0, 4500000.0, 4500000.0, 4500000.0, 4500000.0, 4500000.0, -4500000.375, 4500000.0, 0.004250000114552677, 0.9345000609755516, 0.4050000198185444, 192.0, 0.0, 0.0, 0.0, 0.0, 0.0, 0.0, 0.0, 0.0, 0.0, 1.6292436189689684E9, 2021-08-17 17:40:18.968
152.0, -1269535.21875, 4500000.0, -2107278.75, 4500000.0, 4500000.0, -1729268.625, 4500000.0, -1195272.9375, 4500000.0, 4500000.0, 4500000.0, 4500000.0, 4500000.0, 4500000.0, -4500000.375, 4500000.0, 0.004250000114552677, 0.9345000609755516, 0.4050000198185444, 192.0, 0.0, 0.0, 14.0, 104.0, 6.0, 72.0, 0.0, 0.0, 0.0, 1.6292436189689753E9, 2021-08-17 17:40:18.968
154.0, -1270670.90625, 4500000.0, -2105914.5, 4500000.0, 4500000.0, -1728927.9375, 4500000.0, -1196027.71875, 4500000.0, 4500000.0, 4500000.0, 4500000.0, 4500000.0, 4500000.0, -4500000.375, 4500000.0, 0.004250000114552677, 0.9345000609755516, 0.4050000198185444, 192.0, 0.0, 0.0, 0.0, 0.0, 0.0, 0.0, 0.0, 0.0, 0.0, 1.6292436189689817E9, 2021-08-17 17:40:18.968
156.0, -1269518.625, 4500000.0, -2107182.75, 4500000.0, 4500000.0, -1729125.375, 4500000.0, -1195293.84375, 4500000.0, 4500000.0, 4500000.0, 4500000.0, 4500000.0, 4500000.0, -4500000.375, 4500000.0, 0.004250000114552677, 0.9345000609755516, 0.4050000198185444, 192.0, 0.0, 0.0, 0.0, 0.0, 0.0, 0.0, 0.0, 0.0, 0.0, 1.629243618968989E9, 2021-08-17 17:40:18.968
158.0, -1270822.6875, 4500000.0, -2105650.6875, 4500000.0, 4500000.0, -1728860.25, 4500000.0, -1196366.71875, 4500000.0, 4500000.0, 4500000.0, 4500000.0, 4500000.0, 4500000.0, -4500000.375, 4500000.0, 0.004250000114552677, 0.9345000609755516, 0.4050000198185444, 192.0, 0.0, 0.0, 0.0, 0.0, 0.0, 0.0, 0.0, 0.0, 0.0, 1.6292436189689953E9, 2021-08-17 17:40:18.968
160.0, -1269393.09375, 4500000.0, -2107009.5, 4500000.0, 4500000.0, -1728771.375, 4500000.0, -1195082.4375, 4500000.0, 4500000.0, 4500000.0, 4500000.0, 4500000.0, 4500000.0, -4500000.375, 4500000.0, 0.004250000114552677, 0.9345000609755516, 0.4050000198185444, 192.0, 0.0, 0.0, 0.0, 0.0, 0.0, 0.0, 0.0, 0.0, 0.0, 1.629243618969002E9, 2021-08-17 17:40:18.969
162.0, -1271262.0, 4500000.0, -2106037.5, 4500000.0, 4500000.0, -1729359.75, 4500000.0, -1196500.3125, 4500000.0, 4500000.0, 4500000.0, 4500000.0, 4500000.0, 4500000.0, -4500000.375, 4500000.0, 0.004250000114552677, 0.9345000609755516, 0.4050000198185444, 192.0, 0.0, 0.0, 14.0, 96.0, 6.0, 80.0, 0.0, 0.0, 0.0, 1.629243618969009E9, 2021-08-17 17:40:18.969
164.0, -1269213.9375, 4500000.0, -2106955.875, 4500000.0, 4500000.0, -1728604.5, 4500000.0, -1194822.84375, 4500000.0, 4500000.0, 4500000.0, 4500000.0, 4500000.0, 4500000.0, -4500000.375, 4500000.0, 0.004250000114552677, 0.9345000609755516, 0.4050000198185444, 192.0, 0.0, 0.0, 0.0, 0.0, 0.0, 0.0, 0.0, 0.0, 0.0, 1.6292436189690156E9, 2021-08-17 17:40:18.969
166.0, -1271277.09375, 4500000.0, -2106275.0625, 4500000.0, 4500000.0, -1729485.375, 4500000.0, -1196607.5625, 4500000.0, 4500000.0, 4500000.0, 4500000.0, 4500000.0, 4500000.0, -4500000.375, 4500000.0, 0.004250000114552677, 0.9345000609755516, 0.4050000198185444, 192.0, 0.0, 0.0, 0.0, 0.0, 0.0, 0.0, 0.0, 0.0, 0.0, 1.6292436189690292E9, 2021-08-17 17:40:18.969
168.0, -1269052.96875, 4500000.0, -2106714.375, 4500000.0, 4500000.0, -1728402.75, 4500000.0, -1194879.65625, 4500000.0, 4500000.0, 4500000.0, 4500000.0, 4500000.0, 4500000.0, -4500000.375, 4500000.0, 0.004250000114552677, 0.9345000609755516, 0.4050000198185444, 192.0, 0.0, 0.0, 0.0, 0.0, 0.0, 0.0, 0.0, 0.0, 0.0, 1.629243618969036E9, 2021-08-17 17:40:18.969
170.0, -1271451.9375, 4500000.0, -2106567.375, 4500000.0, 4500000.0, -1729768.5, 4500000.0, -1196903.71875, 4500000.0, 4500000.0, 4500000.0, 4500000.0, 4500000.0, 4500000.0, -4500000.375, 4500000.0, 0.004250000114552677, 0.9345000609755516, 0.4050000198185444, 192.0, 0.0, 0.0, 0.0, 0.0, 0.0, 0.0, 0.0, 0.0, 0.0, 1.629243618969043E9, 2021-08-17 17:40:18.969
172.0, -1269467.625, 4500000.0, -2107068.5625, 4500000.0, 4500000.0, -1728652.125, 4500000.0, -1195386.09375, 4500000.0, 4500000.0, 4500000.0, 4500000.0, 4500000.0, 4500000.0, -4500000.375, 4500000.0, -0.0020000000949949026, 0.9300000667572021, 0.3960000276565552, 192.0, 127.5, 120.0, 14.5, 8.0, 6.0, 48.0, 0.0, 0.0, 0.0, 1.6292436189690497E9, 2021-08-17 17:40:18.969
174.0, -1271559.1875, 4500000.0, -2106802.875, 4500000.0, 4500000.0, -1729964.8125, 4500000.0, -1197270.09375, 4500000.0, 4500000.0, 4500000.0, 4500000.0, 4500000.0, 4500000.0, -4500000.375, 4500000.0, -0.0020000000949949026, 0.9300000667572021, 0.3960000276565552, 192.0, 0.0, 0.0, 0.0, 0.0, 0.0, 0.0, 0.0, 0.0, 0.0, 1.6292436189690561E9, 2021-08-17 17:40:18.969
176.0, -1269851.15625, 4500000.0, -2106978.375, 4500000.0, 4500000.0, -1728672.5625, 4500000.0, -1195619.4375, 4500000.0, 4500000.0, 4500000.0, 4500000.0, 4500000.0, 4500000.0, -4500000.375, 4500000.0, -0.0020000000949949026, 0.9300000667572021, 0.3960000276565552, 192.0, 0.0, 0.0, 0.0, 0.0, 0.0, 0.0, 0.0, 0.0, 0.0, 1.6292436189690633E9, 2021-08-17 17:40:18.969
178.0, -1271402.0625, 4500000.0, -2106671.4375, 4500000.0, 4500000.0, -1729754.0625, 4500000.0, -1196854.875, 4500000.0, 4500000.0, 4500000.0, 4500000.0, 4500000.0, 4500000.0, -4500000.375, 4500000.0, -0.0020000000949949026, 0.9300000667572021, 0.3960000276565552, 192.0, 0.0, 0.0, 0.0, 0.0, 0.0, 0.0, 0.0, 0.0, 0.0, 1.6292436189690697E9, 2021-08-17 17:40:18.969
180.0, -1270313.625, 4500000.0, -2106790.125, 4500000.0, 4500000.0, -1728516.0, 4500000.0, -1196104.96875, 4500000.0, 4500000.0, 4500000.0, 4500000.0, 4500000.0, 4500000.0, -4500000.375, 4500000.0, -0.0020000000949949026, 0.9300000667572021, 0.3960000276565552, 192.0, 0.0, 0.0, 0.0, 0.0, 0.0, 0.0, 0.0, 0.0, 0.0, 1.6292436189690764E9, 2021-08-17 17:40:18.969
182.0, -1271200.875, 4500000.0, -2106898.875, 4500000.0, 4500000.0, -1729671.0, 4500000.0, -1196625.28125, 4500000.0, 4500000.0, 4500000.0, 4500000.0, 4500000.0, 4500000.0, -4500000.375, 4500000.0, -0.004000000189989805, 0.9360000491142273, 0.3880000114440918, 192.0, 127.5, 112.0, 14.5, 32.0, 6.0, 16.0, 0.0, 0.0, 0.0, 1.629243618969083E9, 2021-08-17 17:40:18.969
184.0, -1270025.53125, 4500000.0, -2106491.25, 4500000.0, 4500000.0, -1728522.375, 4500000.0, -1195811.53125, 4500000.0, 4500000.0, 4500000.0, 4500000.0, 4500000.0, 4500000.0, -4500000.375, 4500000.0, -0.004000000189989805, 0.9360000491142273, 0.3880000114440918, 192.0, 0.0, 0.0, 0.0, 0.0, 0.0, 0.0, 0.0, 0.0, 0.0, 1.62924361896909E9, 2021-08-17 17:40:18.969
186.0, -1270724.53125, 4500000.0, -2107020.75, 4500000.0, 4500000.0, -1729771.6875, 4500000.0, -1196109.1875, 4500000.0, 4500000.0, 4500000.0, 4500000.0, 4500000.0, 4500000.0, -4500000.375, 4500000.0, -0.004000000189989805, 0.9360000491142273, 0.3880000114440918, 192.0, 0.0, 0.0, 0.0, 0.0, 0.0, 0.0, 0.0, 0.0, 0.0, 1.6292436189690964E9, 2021-08-17 17:40:18.969
188.0, -1270696.125, 4500000.0, -2106820.6875, 4500000.0, 4500000.0, -1729029.9375, 4500000.0, -1196026.59375, 4500000.0, 4500000.0, 4500000.0, 4500000.0, 4500000.0, 4500000.0, -4500000.375, 4500000.0, -0.004000000189989805, 0.9360000491142273, 0.3880000114440918, 192.0, 0.0, 0.0, 0.0, 0.0, 0.0, 0.0, 0.0, 0.0, 0.0, 1.629243618969103E9, 2021-08-17 17:40:18.969
190.0, -1270604.34375, 4500000.0, -2107625.8125, 4500000.0, 4500000.0, -1729986.9375, 4500000.0, -1196334.0, 4500000.0, 4500000.0, 4500000.0, 4500000.0, 4500000.0, 4500000.0, -4500000.375, 4500000.0, -0.004000000189989805, 0.9360000491142273, 0.3880000114440918, 192.0, 0.0, 0.0, 0.0, 0.0, 0.0, 0.0, 0.0, 0.0, 0.0, 1.6292436189691095E9, 2021-08-17 17:40:18.969
192.0, -1270878.46875, 4500000.0, -2106900.5625, 4500000.0, 4500000.0, -1729265.4375, 4500000.0, -1196374.21875, 4500000.0, 4500000.0, 4500000.0, 4500000.0, 4500000.0, 4500000.0, -4500000.375, 4500000.0, -0.00800000037997961, 0.9300000667572021, 0.37400001287460327, 192.0, 127.5, 96.0, 14.5, 8.0, 5.5, 88.0, 0.0, 0.0, 0.0, 1.6292436189691164E9, 2021-08-17 17:40:18.969
194.0, -1270130.71875, 4500000.0, -2107159.125, 4500000.0, 4500000.0, -1729377.0, 4500000.0, -1195655.90625, 4500000.0, 4500000.0, 4500000.0, 4500000.0, 4500000.0, 4500000.0, -4500000.375, 4500000.0, -0.00800000037997961, 0.9300000667572021, 0.37400001287460327, 192.0, 0.0, 0.0, 0.0, 0.0, 0.0, 0.0, 0.0, 0.0, 0.0, 1.629243618969123E9, 2021-08-17 17:40:18.969
196.0, -1270533.0, 4500000.0, -2106025.125, 4500000.0, 4500000.0, -1728672.5625, 4500000.0, -1196230.40625, 4500000.0, 4500000.0, 4500000.0, 4500000.0, 4500000.0, 4500000.0, -4500000.375, 4500000.0, -0.00800000037997961, 0.9300000667572021, 0.37400001287460327, 192.0, 0.0, 0.0, 0.0, 0.0, 0.0, 0.0, 0.0, 0.0, 0.0, 1.6292436189691305E9, 2021-08-17 17:40:18.969
198.0, -1270079.15625, 4500000.0, -2107512.5625, 4500000.0, 4500000.0, -1729641.9375, 4500000.0, -1195719.1875, 4500000.0, 4500000.0, 4500000.0, 4500000.0, 4500000.0, 4500000.0, -4500000.375, 4500000.0, -0.00800000037997961, 0.9300000667572021, 0.37400001287460327, 192.0, 0.0, 0.0, 0.0, 0.0, 0.0, 0.0, 0.0, 0.0, 0.0, 1.6292436189691367E9, 2021-08-17 17:40:18.969
200.0, -1271128.5, 4500000.0, -2106167.25, 4500000.0, 4500000.0, -1729272.375, 4500000.0, -1196610.28125, 4500000.0, 4500000.0, 4500000.0, 4500000.0, 4500000.0, 4500000.0, -4500000.375, 4500000.0, -0.007000000216066837, 0.9360000491142273, 0.37700001895427704, 192.0, 127.5, 104.0, 14.5, 56.0, 5.5, 112.0, 0.0, 0.0, 0.0, 1.6292436189691455E9, 2021-08-17 17:40:18.969
202.0, -1270221.375, 4500000.0, -2107332.9375, 4500000.0, 4500000.0, -1729406.4375, 4500000.0, -1195816.3125, 4500000.0, 4500000.0, 4500000.0, 4500000.0, 4500000.0, 4500000.0, -4500000.375, 4500000.0, -0.007000000216066837, 0.9360000491142273, 0.37700001895427704, 192.0, 0.0, 0.0, 0.0, 0.0, 0.0, 0.0, 0.0, 0.0, 0.0, 1.629243618969152E9, 2021-08-17 17:40:18.969
204.0, -1271394.5625, 4500000.0, -2105881.3125, 4500000.0, 4500000.0, -1728955.875, 4500000.0, -1196704.125, 4500000.0, 4500000.0, 4500000.0, 4500000.0, 4500000.0, 4500000.0, -4500000.375, 4500000.0, -0.007000000216066837, 0.9360000491142273, 0.37700001895427704, 192.0, 0.0, 0.0, 0.0, 0.0, 0.0, 0.0, 0.0, 0.0, 0.0, 1.6292436189691586E9, 2021-08-17 17:40:18.969
206.0, -1270243.875, 4500000.0, -2107395.1875, 4500000.0, 4500000.0, -1729162.875, 4500000.0, -1195921.5, 4500000.0, 4500000.0, 4500000.0, 4500000.0, 4500000.0, 4500000.0, -4500000.375, 4500000.0, -0.007000000216066837, 0.9360000491142273, 0.37700001895427704, 192.0, 0.0, 0.0, 0.0, 0.0, 0.0, 0.0, 0.0, 0.0, 0.0, 1.629243618969165E9, 2021-08-17 17:40:18.969
208.0, -1271089.3125, 4500000.0, -2105463.375, 4500000.0, 4500000.0, -1728620.625, 4500000.0, -1196679.46875, 4500000.0, 4500000.0, 4500000.0, 4500000.0, 4500000.0, 4500000.0, -4500000.375, 4500000.0, -0.007000000216066837, 0.9360000491142273, 0.37700001895427704, 192.0, 0.0, 0.0, 0.0, 0.0, 0.0, 0.0, 0.0, 0.0, 0.0, 1.6292436189691718E9, 2021-08-17 17:40:18.969
210.0, -1269676.3125, 4500000.0, -2106999.75, 4500000.0, 4500000.0, -1728625.875, 4500000.0, -1195328.15625, 4500000.0, 4500000.0, 4500000.0, 4500000.0, 4500000.0, 4500000.0, -4500000.375, 4500000.0, -0.005500000203028321, 0.9380000531673431, 0.37950002402067184, 192.0, 127.5, 112.0, 14.5, 48.0, 5.5, 120.0, 0.0, 0.0, 0.0, 1.6292436189691784E9, 2021-08-17 17:40:18.969
212.0, -1271665.40625, 4500000.0, -2106009.0, 4500000.0, 4500000.0, -1729200.0, 4500000.0, -1197122.0625, 4500000.0, 4500000.0, 4500000.0, 4500000.0, 4500000.0, 4500000.0, -4500000.375, 4500000.0, -0.005500000203028321, 0.9380000531673431, 0.37950002402067184, 192.0, 0.0, 0.0, 0.0, 0.0, 0.0, 0.0, 0.0, 0.0, 0.0, 1.6292436189691849E9, 2021-08-17 17:40:18.969
214.0, -1269391.5, 4500000.0, -2106755.8125, 4500000.0, 4500000.0, -1728360.375, 4500000.0, -1195464.375, 4500000.0, 4500000.0, 4500000.0, 4500000.0, 4500000.0, 4500000.0, -4500000.375, 4500000.0, -0.005500000203028321, 0.9380000531673431, 0.37950002402067184, 192.0, 0.0, 0.0, 0.0, 0.0, 0.0, 0.0, 0.0, 0.0, 0.0, 1.6292436192531283E9, 2021-08-17 17:40:19.253
216.0, -1271760.375, 4500000.0, -2106213.9375, 4500000.0, 4500000.0, -1729394.0625, 4500000.0, -1197118.78125, 4500000.0, 4500000.0, 4500000.0, 4500000.0, 4500000.0, 4500000.0, -4500000.375, 4500000.0, -0.005500000203028321, 0.9380000531673431, 0.37950002402067184, 192.0, 0.0, 0.0, 0.0, 0.0, 0.0, 0.0, 0.0, 0.0, 0.0, 1.6292436192531388E9, 2021-08-17 17:40:19.253
218.0, -1269284.15625, 4500000.0, -2106253.125, 4500000.0, 4500000.0, -1727760.1875, 4500000.0, -1194683.90625, 4500000.0, 4500000.0, 4500000.0, 4500000.0, 4500000.0, 4500000.0, -4500000.375, 4500000.0, -0.005500000203028321, 0.9380000531673431, 0.37950002402067184, 192.0, 0.0, 0.0, 0.0, 0.0, 0.0, 0.0, 0.0, 0.0, 0.0, 1.629243619253146E9, 2021-08-17 17:40:19.253
220.0, -1271457.84375, 4500000.0, -2105939.8125, 4500000.0, 4500000.0, -1729041.75, 4500000.0, -1196849.53125, 4500000.0, 4500000.0, 4500000.0, 4500000.0, 4500000.0, 4500000.0, -4500000.375, 4500000.0, -0.003750000149011612, 0.9350000470876694, 0.3827500157058239, 192.0, 127.5, 120.0, 14.5, 16.0, 6.0, 8.0, 0.0, 0.0, 0.0, 1.629243619253158E9, 2021-08-17 17:40:19.253
222.0, -1269765.9375, 4500000.0, -2106565.875, 4500000.0, 4500000.0, -1727987.0625, 4500000.0, -1195476.75, 4500000.0, 4500000.0, 4500000.0, 4500000.0, 4500000.0, 4500000.0, -4500000.375, 4500000.0, -0.003750000149011612, 0.9350000470876694, 0.3827500157058239, 192.0, 0.0, 0.0, 0.0, 0.0, 0.0, 0.0, 0.0, 0.0, 0.0, 1.6292436192531822E9, 2021-08-17 17:40:19.253
224.0, -1271607.0, 4500000.0, -2106237.0, 4500000.0, 4500000.0, -1729177.3125, 4500000.0, -1196906.34375, 4500000.0, 4500000.0, 4500000.0, 4500000.0, 4500000.0, 4500000.0, -4500000.375, 4500000.0, -0.003750000149011612, 0.9350000470876694, 0.3827500157058239, 192.0, 0.0, 0.0, 0.0, 0.0, 0.0, 0.0, 0.0, 0.0, 0.0, 1.6292436192532077E9, 2021-08-17 17:40:19.253
226.0, -1269856.03125, 4500000.0, -2106304.5, 4500000.0, 4500000.0, -1727865.1875, 4500000.0, -1195182.75, 4500000.0, 4500000.0, 4500000.0, 4500000.0, 4500000.0, 4500000.0, -4500000.375, 4500000.0, -0.003750000149011612, 0.9350000470876694, 0.3827500157058239, 192.0, 0.0, 0.0, 0.0, 0.0, 0.0, 0.0, 0.0, 0.0, 0.0, 1.6292436192532148E9, 2021-08-17 17:40:19.253
228.0, -1271096.25, 4500000.0, -2106028.3125, 4500000.0, 4500000.0, -1728812.0625, 4500000.0, -1196472.9375, 4500000.0, 4500000.0, 4500000.0, 4500000.0, 4500000.0, 4500000.0, -4500000.375, 4500000.0, -0.003750000149011612, 0.9350000470876694, 0.3827500157058239, 192.0, 0.0, 0.0, 0.0, 0.0, 0.0, 0.0, 0.0, 0.0, 0.0, 1.629243619253222E9, 2021-08-17 17:40:19.253
230.0, -1270358.15625, 4500000.0, -2106553.5, 4500000.0, 4500000.0, -1728247.125, 4500000.0, -1195828.6875, 4500000.0, 4500000.0, 4500000.0, 4500000.0, 4500000.0, 4500000.0, -4500000.375, 4500000.0, -8.750000270083547E-4, 0.9355000481009483, 0.3843750115483999, 192.0, 0.0, 8.0, 14.5, 32.0, 6.0, 8.0, 0.0, 0.0, 0.0, 1.629243619253229E9, 2021-08-17 17:40:19.253
232.0, -1271325.84375, 4500000.0, -2106659.625, 4500000.0, 4500000.0, -1729240.6875, 4500000.0, -1196624.15625, 4500000.0, 4500000.0, 4500000.0, 4500000.0, 4500000.0, 4500000.0, -4500000.375, 4500000.0, -8.750000270083547E-4, 0.9355000481009483, 0.3843750115483999, 192.0, 0.0, 0.0, 0.0, 0.0, 0.0, 0.0, 0.0, 0.0, 0.0, 1.629243619253236E9, 2021-08-17 17:40:19.253
234.0, -1270361.90625, 4500000.0, -2106149.625, 4500000.0, 4500000.0, -1727873.25, 4500000.0, -1195893.0, 4500000.0, 4500000.0, 4500000.0, 4500000.0, 4500000.0, 4500000.0, -4500000.375, 4500000.0, -8.750000270083547E-4, 0.9355000481009483, 0.3843750115483999, 192.0, 0.0, 0.0, 0.0, 0.0, 0.0, 0.0, 0.0, 0.0, 0.0, 1.6292436192532516E9, 2021-08-17 17:40:19.253
236.0, -1271088.75, 4500000.0, -2106896.8125, 4500000.0, 4500000.0, -1729187.0625, 4500000.0, -1196423.53125, 4500000.0, 4500000.0, 4500000.0, 4500000.0, 4500000.0, 4500000.0, -4500000.375, 4500000.0, -8.750000270083547E-4, 0.9355000481009483, 0.3843750115483999, 192.0, 0.0, 0.0, 0.0, 0.0, 0.0, 0.0, 0.0, 0.0, 0.0, 1.6292436192532585E9, 2021-08-17 17:40:19.253
238.0, -1270999.6875, 4500000.0, -2106738.5625, 4500000.0, 4500000.0, -1728541.6875, 4500000.0, -1196529.28125, 4500000.0, 4500000.0, 4500000.0, 4500000.0, 4500000.0, 4500000.0, -4500000.375, 4500000.0, -8.750000270083547E-4, 0.9355000481009483, 0.3843750115483999, 192.0, 0.0, 0.0, 0.0, 0.0, 0.0, 0.0, 0.0, 0.0, 0.0, 1.6292436192532656E9, 2021-08-17 17:40:19.253
240.0, -1270696.125, 4500000.0, -2107046.4375, 4500000.0, 4500000.0, -1729192.875, 4500000.0, -1196309.8125, 4500000.0, 4500000.0, 4500000.0, 4500000.0, 4500000.0, 4500000.0, -4500000.375, 4500000.0, -8.750000270083547E-4, 0.9355000481009483, 0.3843750115483999, 192.0, 0.0, 0.0, 14.5, 24.0, 6.0, 24.0, 0.0, 0.0, 0.0, 1.6292436192532744E9, 2021-08-17 17:40:19.253
242.0, -1270763.15625, 4500000.0, -2105992.875, 4500000.0, 4500000.0, -1728366.75, 4500000.0, -1196378.53125, 4500000.0, 4500000.0, 4500000.0, 4500000.0, 4500000.0, 4500000.0, -4500000.375, 4500000.0, -8.750000270083547E-4, 0.9355000481009483, 0.3843750115483999, 192.0, 0.0, 0.0, 0.0, 0.0, 0.0, 0.0, 0.0, 0.0, 0.0, 1.6292436192532814E9, 2021-08-17 17:40:19.253
244.0, -1270567.3125, 4500000.0, -2107010.0625, 4500000.0, 4500000.0, -1729094.8125, 4500000.0, -1195854.9375, 4500000.0, 4500000.0, 4500000.0, 4500000.0, 4500000.0, 4500000.0, -4500000.375, 4500000.0, -8.750000270083547E-4, 0.9355000481009483, 0.3843750115483999, 192.0, 0.0, 0.0, 0.0, 0.0, 0.0, 0.0, 0.0, 0.0, 0.0, 1.6292436192532885E9, 2021-08-17 17:40:19.253
246.0, -1270747.59375, 4500000.0, -2105430.75, 4500000.0, 4500000.0, -1728087.375, 4500000.0, -1196087.25, 4500000.0, 4500000.0, 4500000.0, 4500000.0, 4500000.0, 4500000.0, -4500000.375, 4500000.0, -8.750000270083547E-4, 0.9355000481009483, 0.3843750115483999, 192.0, 0.0, 0.0, 0.0, 0.0, 0.0, 0.0, 0.0, 0.0, 0.0, 1.6292436192532954E9, 2021-08-17 17:40:19.253
248.0, -1270517.4375, 4500000.0, -2107094.8125, 4500000.0, 4500000.0, -1729222.5, 4500000.0, -1195890.375, 4500000.0, 4500000.0, 4500000.0, 4500000.0, 4500000.0, 4500000.0, -4500000.375, 4500000.0, -8.750000270083547E-4, 0.9355000481009483, 0.3843750115483999, 192.0, 0.0, 0.0, 0.0, 0.0, 0.0, 0.0, 0.0, 0.0, 0.0, 1.629243619253303E9, 2021-08-17 17:40:19.253
250.0, -1271595.75, 4500000.0, -2105835.1875, 4500000.0, 4500000.0, -1728841.125, 4500000.0, -1196809.78125, 4500000.0, 4500000.0, 4500000.0, 4500000.0, 4500000.0, 4500000.0, -4500000.375, 4500000.0, -0.004000000189989805, 0.9300000667572021, 0.3880000114440918, 192.0, 127.5, 112.0, 14.5, 8.0, 6.0, 16.0, 0.0, 0.0, 0.0, 1.62924361925331E9, 2021-08-17 17:40:19.253
252.0, -1270276.59375, 4500000.0, -2107027.125, 4500000.0, 4500000.0, -1729053.0, 4500000.0, -1195852.78125, 4500000.0, 4500000.0, 4500000.0, 4500000.0, 4500000.0, 4500000.0, -4500000.375, 4500000.0, -0.004000000189989805, 0.9300000667572021, 0.3880000114440918, 192.0, 0.0, 0.0, 0.0, 0.0, 0.0, 0.0, 0.0, 0.0, 0.0, 1.629243619253317E9, 2021-08-17 17:40:19.253
254.0, -1272162.1875, 4500000.0, -2106321.75, 4500000.0, 4500000.0, -1729307.8125, 4500000.0, -1197480.375, 4500000.0, 4500000.0, 4500000.0, 4500000.0, 4500000.0, 4500000.0, -4500000.375, 4500000.0, -0.004000000189989805, 0.9300000667572021, 0.3880000114440918, 192.0, 0.0, 0.0, 0.0, 0.0, 0.0, 0.0, 0.0, 0.0, 0.0, 1.6292436192533245E9, 2021-08-17 17:40:19.253
0.0, -1269953.625, 4500000.0, -2106942.375, 4500000.0, 4500000.0, -1728584.625, 4500000.0, -1195226.25, 4500000.0, 4500000.0, 4500000.0, 4500000.0, 4500000.0, 4500000.0, -4500000.375, 4500000.0, -0.004000000189989805, 0.9300000667572021, 0.3880000114440918, 192.0, 0.0, 0.0, 0.0, 0.0, 0.0, 0.0, 0.0, 0.0, 0.0, 1.6292436192533312E9, 2021-08-17 17:40:19.253
2.0, -1272037.21875, 4500000.0, -2106327.5625, 4500000.0, 4500000.0, -1729461.1875, 4500000.0, -1197122.0625, 4500000.0, 4500000.0, 4500000.0, 4500000.0, 4500000.0, 4500000.0, -4500000.375, 4500000.0, -0.004000000189989805, 0.9300000667572021, 0.3880000114440918, 192.0, 0.0, 0.0, 0.0, 0.0, 0.0, 0.0, 0.0, 0.0, 0.0, 1.6292436192533383E9, 2021-08-17 17:40:19.253
4.0, -1270384.40625, 4500000.0, -2107632.1875, 4500000.0, 4500000.0, -1729229.4375, 4500000.0, -1195926.84375, 4500000.0, 4500000.0, 4500000.0, 4500000.0, 4500000.0, 4500000.0, -4500000.375, 4500000.0, -0.006000000052154064, 0.9320000410079956, 0.3840000033378601, 192.0, 127.5, 104.0, 14.5, 16.0, 6.0, 0.0, 0.0, 0.0, 0.0, 1.6292436192533455E9, 2021-08-17 17:40:19.253
6.0, -1272031.3125, 4500000.0, -2106232.6875, 4500000.0, 4500000.0, -1729353.375, 4500000.0, -1197073.21875, 4500000.0, 4500000.0, 4500000.0, 4500000.0, 4500000.0, 4500000.0, -4500000.375, 4500000.0, -0.006000000052154064, 0.9320000410079956, 0.3840000033378601, 192.0, 0.0, 0.0, 0.0, 0.0, 0.0, 0.0, 0.0, 0.0, 0.0, 1.6292436192533524E9, 2021-08-17 17:40:19.253
8.0, -1270514.8125, 4500000.0, -2107494.375, 4500000.0, 4500000.0, -1729016.4375, 4500000.0, -1195797.5625, 4500000.0, 4500000.0, 4500000.0, 4500000.0, 4500000.0, 4500000.0, -4500000.375, 4500000.0, -0.006000000052154064, 0.9320000410079956, 0.3840000033378601, 192.0, 0.0, 0.0, 0.0, 0.0, 0.0, 0.0, 0.0, 0.0, 0.0, 1.6292436192533598E9, 2021-08-17 17:40:19.253
10.0, -1272478.125, 4500000.0, -2106836.8125, 4500000.0, 4500000.0, -1729946.0625, 4500000.0, -1197809.71875, 4500000.0, 4500000.0, 4500000.0, 4500000.0, 4500000.0, 4500000.0, -4500000.375, 4500000.0, -0.006000000052154064, 0.9320000410079956, 0.3840000033378601, 192.0, 0.0, 0.0, 0.0, 0.0, 0.0, 0.0, 0.0, 0.0, 0.0, 1.6292436192533667E9, 2021-08-17 17:40:19.253
12.0, -1270626.375, 4500000.0, -2107435.875, 4500000.0, 4500000.0, -1728957.375, 4500000.0, -1195931.15625, 4500000.0, 4500000.0, 4500000.0, 4500000.0, 4500000.0, 4500000.0, -4500000.375, 4500000.0, -0.006000000052154064, 0.9320000410079956, 0.3840000033378601, 192.0, 0.0, 0.0, 0.0, 0.0, 0.0, 0.0, 0.0, 0.0, 0.0, 1.629243619253374E9, 2021-08-17 17:40:19.253
14.0, -1272449.15625, 4500000.0, -2106550.3125, 4500000.0, 4500000.0, -1729671.9375, 4500000.0, -1197367.6875, 4500000.0, 4500000.0, 4500000.0, 4500000.0, 4500000.0, 4500000.0, -4500000.375, 4500000.0, -0.004000000189989805, 0.9320000410079956, 0.3840000033378601, 192.0, 127.5, 112.0, 14.5, 16.0, 6.0, 0.0, 0.0, 0.0, 0.0, 1.6292436192533967E9, 2021-08-17 17:40:19.253
16.0, -1270424.625, 4500000.0, -2106606.0, 4500000.0, 4500000.0, -1728154.875, 4500000.0, -1195561.5, 4500000.0, 4500000.0, 4500000.0, 4500000.0, 4500000.0, 4500000.0, -4500000.375, 4500000.0, -0.004000000189989805, 0.9320000410079956, 0.3840000033378601, 192.0, 0.0, 0.0, 0.0, 0.0, 0.0, 0.0, 0.0, 0.0, 0.0, 1.6292436192534037E9, 2021-08-17 17:40:19.253
18.0, -1272229.21875, 4500000.0, -2106836.25, 4500000.0, 4500000.0, -1729825.3125, 4500000.0, -1197393.46875, 4500000.0, 4500000.0, 4500000.0, 4500000.0, 4500000.0, 4500000.0, -4500000.375, 4500000.0, -0.004000000189989805, 0.9320000410079956, 0.3840000033378601, 192.0, 0.0, 0.0, 0.0, 0.0, 0.0, 0.0, 0.0, 0.0, 0.0, 1.6292436192534103E9, 2021-08-17 17:40:19.253
20.0, -1270613.4375, 4500000.0, -2106926.8125, 4500000.0, 4500000.0, -1728541.125, 4500000.0, -1195677.375, 4500000.0, 4500000.0, 4500000.0, 4500000.0, 4500000.0, 4500000.0, -4500000.375, 4500000.0, -0.004000000189989805, 0.9320000410079956, 0.3840000033378601, 192.0, 0.0, 0.0, 0.0, 0.0, 0.0, 0.0, 0.0, 0.0, 0.0, 1.629243619253436E9, 2021-08-17 17:40:19.253
22.0, -1272266.25, 4500000.0, -2107169.8125, 4500000.0, 4500000.0, -1730067.9375, 4500000.0, -1196980.96875, 4500000.0, 4500000.0, 4500000.0, 4500000.0, 4500000.0, 4500000.0, -4500000.375, 4500000.0, -0.004000000189989805, 0.9320000410079956, 0.3840000033378601, 192.0, 0.0, 0.0, 0.0, 0.0, 0.0, 0.0, 0.0, 0.0, 0.0, 1.6292436192534432E9, 2021-08-17 17:40:19.253
