%OpenBCI Raw EEG Data
%Number of channels = 16
%Sample Rate = 125 Hz
%Board = OpenBCI_GUI$BoardCytonSerialDaisy
Sample Index, EXG Channel 0, EXG Channel 1, EXG Channel 2, EXG Channel 3, EXG Channel 4, EXG Channel 5, EXG Channel 6, EXG Channel 7, EXG Channel 8, EXG Channel 9, EXG Channel 10, EXG Channel 11, EXG Channel 12, EXG Channel 13, EXG Channel 14, EXG Channel 15, Accel Channel 0, Accel Channel 1, Accel Channel 2, Other, Other, Other, Other, Other, Other, Other, Analog Channel 0, Analog Channel 1, Analog Channel 2, Timestamp, Timestamp (Formatted)
0.0, -957404.90625, 2249999.625, -1463903.15625, 2249999.625, 2249999.625, -967157.4375, 2249999.625, -1276189.78125, 2249999.625, 2249999.625, 2249999.625, 2249999.625, 2249999.625, 2249999.625, 2249999.625, 2249999.625, -0.014000000432133675, 0.9200000166893005, 0.4280000329017639, 192.0, 127.5, 72.0, 14.0, 96.0, 6.5, 48.0, 0.0, 0.0, 0.0, 1.629269338231782E9, 2021-08-18 00:48:58.231
2.0, -1914145.6875, 4500000.0, -2926110.0, 4500000.0, 4500000.0, -1932579.0, 4500000.0, -2551945.125, 4500000.0, 4500000.0, 4500000.0, 4500000.0, 4500000.0, 4500000.0, 4500000.0, 4500000.0, -0.014000000432133675, 0.9200000166893005, 0.4280000329017639, 192.0, 0.0, 0.0, 0.0, 0.0, 0.0, 0.0, 0.0, 0.0, 0.0, 1.6292693382319596E9, 2021-08-18 00:48:58.231
4.0, -1912820.8125, 4500000.0, -2926499.4375, 4500000.0, 4500000.0, -1931078.0625, 4500000.0, -2551043.8125, 4500000.0, 4500000.0, 4500000.0, 4500000.0, 4500000.0, 4500000.0, 4500000.0, 4500000.0, -0.014000000432133675, 0.9200000166893005, 0.4280000329017639, 192.0, 0.0, 0.0, 0.0, 0.0, 0.0, 0.0, 0.0, 0.0, 0.0, 1.6292693382319667E9, 2021-08-18 00:48:58.231
6.0, -1914934.875, 4500000.0, -2926752.75, 4500000.0, 4500000.0, -1933551.0, 4500000.0, -2552696.0625, 4500000.0, 4500000.0, 4500000.0, 4500000.0, 4500000.0, 4500000.0, 4500000.0, 4500000.0, -0.01000000024214387, 0.9220000207424164, 0.41200003027915955, 192.0, 127.5, 104.0, 14.0, 112.0, 6.0, 48.0, 0.0, 0.0, 0.0, 1.629269338231974E9, 2021-08-18 00:48:58.231
8.0, -1911991.875, 4500000.0, -2925824.0625, 4500000.0, 4500000.0, -1930073.8125, 4500000.0, -2550420.0, 4500000.0, 4500000.0, 4500000.0, 4500000.0, 4500000.0, 4500000.0, 4500000.0, 4500000.0, -0.01000000024214387, 0.9220000207424164, 0.41200003027915955, 192.0, 0.0, 0.0, 0.0, 0.0, 0.0, 0.0, 0.0, 0.0, 0.0, 1.6292693382319808E9, 2021-08-18 00:48:58.231
10.0, -1915019.0625, 4500000.0, -2926998.9375, 4500000.0, 4500000.0, -1934106.1875, 4500000.0, -2552942.8125, 4500000.0, 4500000.0, 4500000.0, 4500000.0, 4500000.0, 4500000.0, 4500000.0, 4500000.0, -0.01000000024214387, 0.9220000207424164, 0.41200003027915955, 192.0, 0.0, 0.0, 0.0, 0.0, 0.0, 0.0, 0.0, 0.0, 0.0, 1.629269338231988E9, 2021-08-18 00:48:58.231
12.0, -1911945.1875, 4500000.0, -2925657.1875, 4500000.0, 4500000.0, -1929695.0625, 4500000.0, -2549822.4375, 4500000.0, 4500000.0, 4500000.0, 4500000.0, 4500000.0, 4500000.0, 4500000.0, 4500000.0, -0.01000000024214387, 0.9220000207424164, 0.41200003027915955, 192.0, 0.0, 0.0, 0.0, 0.0, 0.0, 0.0, 0.0, 0.0, 0.0, 1.6292693382320075E9, 2021-08-18 00:48:58.232
14.0, -1915520.625, 4500000.0, -2927328.375, 4500000.0, 4500000.0, -1934614.3125, 4500000.0, -2552838.75, 4500000.0, 4500000.0, 4500000.0, 4500000.0, 4500000.0, 4500000.0, 4500000.0, 4500000.0, -0.01000000024214387, 0.9220000207424164, 0.41200003027915955, 192.0, 0.0, 0.0, 0.0, 0.0, 0.0, 0.0, 0.0, 0.0, 0.0, 1.6292693382320144E9, 2021-08-18 00:48:58.232
16.0, -1911648.0, 4500000.0, -2925147.75, 4500000.0, 4500000.0, -1929020.8125, 4500000.0, -2550066.9375, 4500000.0, 4500000.0, 4500000.0, 4500000.0, 4500000.0, 4500000.0, 4500000.0, 4500000.0, -0.01000000024214387, 0.9220000207424164, 0.41200003027915955, 192.0, 0.0, 0.0, 14.5, 40.0, 5.5, 96.0, 0.0, 0.0, 0.0, 1.629269338232021E9, 2021-08-18 00:48:58.232
18.0, -1916160.5625, 4500000.0, -2927532.75, 4500000.0, 4500000.0, -1934846.4375, 4500000.0, -2553158.4375, 4500000.0, 4500000.0, 4500000.0, 4500000.0, 4500000.0, 4500000.0, 4500000.0, 4500000.0, -0.01000000024214387, 0.9220000207424164, 0.41200003027915955, 192.0, 0.0, 0.0, 0.0, 0.0, 0.0, 0.0, 0.0, 0.0, 0.0, 1.6292693382320275E9, 2021-08-18 00:48:58.232
20.0, -1911628.6875, 4500000.0, -2924797.3125, 4500000.0, 4500000.0, -1928542.3125, 4500000.0, -2549385.1875, 4500000.0, 4500000.0, 4500000.0, 4500000.0, 4500000.0, 4500000.0, 4500000.0, 4500000.0, -0.01000000024214387, 0.9220000207424164, 0.41200003027915955, 192.0, 0.0, 0.0, 0.0, 0.0, 0.0, 0.0, 0.0, 0.0, 0.0, 1.6292693382320344E9, 2021-08-18 00:48:58.232
22.0, -1915934.8125, 4500000.0, -2927715.5625, 4500000.0, 4500000.0, -1935017.625, 4500000.0, -2553122.0625, 4500000.0, 4500000.0, 4500000.0, 4500000.0, 4500000.0, 4500000.0, 4500000.0, 4500000.0, -0.01000000024214387, 0.9220000207424164, 0.41200003027915955, 192.0, 0.0, 0.0, 0.0, 0.0, 0.0, 0.0, 0.0, 0.0, 0.0, 1.6292693382320416E9, 2021-08-18 00:48:58.232
24.0, -1911827.25, 4500000.0, -2925108.0, 4500000.0, 4500000.0, -1928991.1875, 4500000.0, -2549658.1875, 4500000.0, 4500000.0, 4500000.0, 4500000.0, 4500000.0, 4500000.0, 4500000.0, 4500000.0, -0.01000000024214387, 0.9220000207424164, 0.41200003027915955, 192.0, 0.0, 0.0, 0.0, 0.0, 0.0, 0.0, 0.0, 0.0, 0.0, 1.6292693382320485E9, 2021-08-18 00:48:58.232
26.0, -1915919.25, 4500000.0, -2927828.8125, 4500000.0, 4500000.0, -1935047.625, 4500000.0, -2553182.625, 4500000.0, 4500000.0, 4500000.0, 4500000.0, 4500000.0, 4500000.0, 4500000.0, 4500000.0, -0.004000000073574483, 0.9310000389814377, 0.3890000283718109, 192.0, 0.0, 8.0, 14.5, 48.0, 5.5, 56.0, 0.0, 0.0, 0.0, 1.6292693382320552E9, 2021-08-18 00:48:58.232
28.0, -1912096.5, 4500000.0, -2924920.6875, 4500000.0, 4500000.0, -1929059.8125, 4500000.0, -2549917.3125, 4500000.0, 4500000.0, 4500000.0, 4500000.0, 4500000.0, 4500000.0, 4500000.0, 4500000.0, -0.004000000073574483, 0.9310000389814377, 0.3890000283718109, 192.0, 0.0, 0.0, 0.0, 0.0, 0.0, 0.0, 0.0, 0.0, 0.0, 1.6292693382320616E9, 2021-08-18 00:48:58.232
30.0, -1915696.125, 4500000.0, -2927578.3125, 4500000.0, 4500000.0, -1934545.5, 4500000.0, -2553007.3125, 4500000.0, 4500000.0, 4500000.0, 4500000.0, 4500000.0, 4500000.0, 4500000.0, 4500000.0, -0.004000000073574483, 0.9310000389814377, 0.3890000283718109, 192.0, 0.0, 0.0, 0.0, 0.0, 0.0, 0.0, 0.0, 0.0, 0.0, 1.6292693382320683E9, 2021-08-18 00:48:58.232
32.0, -1912292.25, 4500000.0, -2924766.1875, 4500000.0, 4500000.0, -1929184.875, 4500000.0, -2550007.5, 4500000.0, 4500000.0, 4500000.0, 4500000.0, 4500000.0, 4500000.0, 4500000.0, 4500000.0, -0.004000000073574483, 0.9310000389814377, 0.3890000283718109, 192.0, 0.0, 0.0, 0.0, 0.0, 0.0, 0.0, 0.0, 0.0, 0.0, 1.6292693382320747E9, 2021-08-18 00:48:58.232
34.0, -1915579.125, 4500000.0, -2927411.4375, 4500000.0, 4500000.0, -1934131.875, 4500000.0, -2552918.625, 4500000.0, 4500000.0, 4500000.0, 4500000.0, 4500000.0, 4500000.0, 4500000.0, 4500000.0, -0.004000000073574483, 0.9310000389814377, 0.3890000283718109, 192.0, 0.0, 0.0, 0.0, 0.0, 0.0, 0.0, 0.0, 0.0, 0.0, 1.629269338232091E9, 2021-08-18 00:48:58.232
36.0, -1912704.9375, 4500000.0, -2924507.0625, 4500000.0, 4500000.0, -1929465.9375, 4500000.0, -2550381.9375, 4500000.0, 4500000.0, 4500000.0, 4500000.0, 4500000.0, 4500000.0, 4500000.0, 4500000.0, 9.999999892897904E-4, 0.9355000481009483, 0.3735000193119049, 192.0, 0.0, 24.0, 14.5, 48.0, 5.5, 24.0, 0.0, 0.0, 0.0, 1.6292693382320976E9, 2021-08-18 00:48:58.232
38.0, -1915010.4375, 4500000.0, -2926619.625, 4500000.0, 4500000.0, -1932939.0, 4500000.0, -2552177.4375, 4500000.0, 4500000.0, 4500000.0, 4500000.0, 4500000.0, 4500000.0, 4500000.0, 4500000.0, 9.999999892897904E-4, 0.9355000481009483, 0.3735000193119049, 192.0, 0.0, 0.0, 0.0, 0.0, 0.0, 0.0, 0.0, 0.0, 0.0, 1.6292693382321043E9, 2021-08-18 00:48:58.232
40.0, -1913300.8125, 4500000.0, -2924241.0, 4500000.0, 4500000.0, -1929484.3125, 4500000.0, -2550791.25, 4500000.0, 4500000.0, 4500000.0, 4500000.0, 4500000.0, 4500000.0, 4500000.0, 4500000.0, 9.999999892897904E-4, 0.9355000481009483, 0.3735000193119049, 192.0, 0.0, 0.0, 0.0, 0.0, 0.0, 0.0, 0.0, 0.0, 0.0, 1.629269338232111E9, 2021-08-18 00:48:58.232
42.0, -1914552.9375, 4500000.0, -2926133.0625, 4500000.0, 4500000.0, -1931923.5, 4500000.0, -2551795.875, 4500000.0, 4500000.0, 4500000.0, 4500000.0, 4500000.0, 4500000.0, 4500000.0, 4500000.0, 9.999999892897904E-4, 0.9355000481009483, 0.3735000193119049, 192.0, 0.0, 0.0, 0.0, 0.0, 0.0, 0.0, 0.0, 0.0, 0.0, 1.6292693382321177E9, 2021-08-18 00:48:58.232
44.0, -1913886.1875, 4500000.0, -2924377.3125, 4500000.0, 4500000.0, -1930101.1875, 4500000.0, -2551208.4375, 4500000.0, 4500000.0, 4500000.0, 4500000.0, 4500000.0, 4500000.0, 4500000.0, 4500000.0, 9.999999892897904E-4, 0.9355000481009483, 0.3735000193119049, 192.0, 0.0, 0.0, 0.0, 0.0, 0.0, 0.0, 0.0, 0.0, 0.0, 1.6292693382321243E9, 2021-08-18 00:48:58.232
46.0, -1914276.1875, 4500000.0, -2925656.25, 4500000.0, 4500000.0, -1931008.3125, 4500000.0, -2551530.9375, 4500000.0, 4500000.0, 4500000.0, 4500000.0, 4500000.0, 4500000.0, 4500000.0, 4500000.0, 0.002500000089639798, 0.9407500438392162, 0.35975001752376556, 192.0, 0.0, 16.0, 14.5, 72.0, 5.0, 104.0, 0.0, 0.0, 0.0, 1.6292693382321308E9, 2021-08-18 00:48:58.232
48.0, -1914574.3125, 4500000.0, -2924633.8125, 4500000.0, 4500000.0, -1930577.4375, 4500000.0, -2551702.125, 4500000.0, 4500000.0, 4500000.0, 4500000.0, 4500000.0, 4500000.0, 4500000.0, 4500000.0, 0.002500000089639798, 0.9407500438392162, 0.35975001752376556, 192.0, 0.0, 0.0, 0.0, 0.0, 0.0, 0.0, 0.0, 0.0, 0.0, 1.6292693382321377E9, 2021-08-18 00:48:58.232
50.0, -1913417.25, 4500000.0, -2924750.0625, 4500000.0, 4500000.0, -1929630.75, 4500000.0, -2550914.625, 4500000.0, 4500000.0, 4500000.0, 4500000.0, 4500000.0, 4500000.0, 4500000.0, 4500000.0, 0.002500000089639798, 0.9407500438392162, 0.35975001752376556, 192.0, 0.0, 0.0, 0.0, 0.0, 0.0, 0.0, 0.0, 0.0, 0.0, 1.629269338232144E9, 2021-08-18 00:48:58.232
52.0, -1914823.875, 4500000.0, -2924513.0625, 4500000.0, 4500000.0, -1930965.9375, 4500000.0, -2552107.125, 4500000.0, 4500000.0, 4500000.0, 4500000.0, 4500000.0, 4500000.0, 4500000.0, 4500000.0, 0.002500000089639798, 0.9407500438392162, 0.35975001752376556, 192.0, 0.0, 0.0, 0.0, 0.0, 0.0, 0.0, 0.0, 0.0, 0.0, 1.6292693382321508E9, 2021-08-18 00:48:58.232
54.0, -1913521.875, 4500000.0, -2924726.0625, 4500000.0, 4500000.0, -1929217.6875, 4500000.0, -2551095.375, 4500000.0, 4500000.0, 4500000.0, 4500000.0, 4500000.0, 4500000.0, 4500000.0, 4500000.0, 0.002500000089639798, 0.9407500438392162, 0.35975001752376556, 192.0, 0.0, 0.0, 0.0, 0.0, 0.0, 0.0, 0.0, 0.0, 0.0, 1.6292693382321577E9, 2021-08-18 00:48:58.232
56.0, -1915744.3125, 4500000.0, -2925002.25, 4500000.0, 4500000.0, -1931941.125, 4500000.0, -2553295.875, 4500000.0, 4500000.0, 4500000.0, 4500000.0, 4500000.0, 4500000.0, 4500000.0, 4500000.0, 0.002500000089639798, 0.9407500438392162, 0.35975001752376556, 192.0, 0.0, 0.0, 15.0, 0.0, 5.0, 72.0, 0.0, 0.0, 0.0, 1.629269338232164E9, 2021-08-18 00:48:58.232
58.0, -1913201.0625, 4500000.0, -2924021.625, 4500000.0, 4500000.0, -1928395.875, 4500000.0, -2550439.3125, 4500000.0, 4500000.0, 4500000.0, 4500000.0, 4500000.0, 4500000.0, 4500000.0, 4500000.0, 0.002500000089639798, 0.9407500438392162, 0.35975001752376556, 192.0, 0.0, 0.0, 0.0, 0.0, 0.0, 0.0, 0.0, 0.0, 0.0, 1.6292693382321708E9, 2021-08-18 00:48:58.232
60.0, -1916169.1875, 4500000.0, -2924865.0, 4500000.0, 4500000.0, -1932087.5625, 4500000.0, -2553050.0625, 4500000.0, 4500000.0, 4500000.0, 4500000.0, 4500000.0, 4500000.0, 4500000.0, 4500000.0, 0.002500000089639798, 0.9407500438392162, 0.35975001752376556, 192.0, 0.0, 0.0, 0.0, 0.0, 0.0, 0.0, 0.0, 0.0, 0.0, 1.6292693382321775E9, 2021-08-18 00:48:58.232
62.0, -1912966.125, 4500000.0, -2923448.25, 4500000.0, 4500000.0, -1927531.125, 4500000.0, -2550430.125, 4500000.0, 4500000.0, 4500000.0, 4500000.0, 4500000.0, 4500000.0, 4500000.0, 4500000.0, 0.002500000089639798, 0.9407500438392162, 0.35975001752376556, 192.0, 0.0, 0.0, 0.0, 0.0, 0.0, 0.0, 0.0, 0.0, 0.0, 1.629269338232184E9, 2021-08-18 00:48:58.232
64.0, -1916175.1875, 4500000.0, -2924800.5, 4500000.0, 4500000.0, -1932109.125, 4500000.0, -2553318.9375, 4500000.0, 4500000.0, 4500000.0, 4500000.0, 4500000.0, 4500000.0, 4500000.0, 4500000.0, 0.002500000089639798, 0.9407500438392162, 0.35975001752376556, 192.0, 0.0, 0.0, 0.0, 0.0, 0.0, 0.0, 0.0, 0.0, 0.0, 1.6292693382321906E9, 2021-08-18 00:48:58.232
66.0, -1912423.6875, 4500000.0, -2922905.8125, 4500000.0, 4500000.0, -1926679.125, 4500000.0, -2550091.6875, 4500000.0, 4500000.0, 4500000.0, 4500000.0, 4500000.0, 4500000.0, 4500000.0, 4500000.0, 0.002500000089639798, 0.9407500438392162, 0.35975001752376556, 192.0, 0.0, 0.0, 14.5, 120.0, 5.0, 32.0, 0.0, 0.0, 0.0, 1.6292693382321973E9, 2021-08-18 00:48:58.232
68.0, -1916679.9375, 4500000.0, -2925271.125, 4500000.0, 4500000.0, -1932407.8125, 4500000.0, -2553728.25, 4500000.0, 4500000.0, 4500000.0, 4500000.0, 4500000.0, 4500000.0, 4500000.0, 4500000.0, 0.002500000089639798, 0.9407500438392162, 0.35975001752376556, 192.0, 0.0, 0.0, 0.0, 0.0, 0.0, 0.0, 0.0, 0.0, 0.0, 1.629269338232206E9, 2021-08-18 00:48:58.232
70.0, -1912899.0, 4500000.0, -2923156.875, 4500000.0, 4500000.0, -1926678.5625, 4500000.0, -2550335.8125, 4500000.0, 4500000.0, 4500000.0, 4500000.0, 4500000.0, 4500000.0, 4500000.0, 4500000.0, 0.002500000089639798, 0.9407500438392162, 0.35975001752376556, 192.0, 0.0, 0.0, 0.0, 0.0, 0.0, 0.0, 0.0, 0.0, 0.0, 1.6292693382322128E9, 2021-08-18 00:48:58.232
72.0, -1917521.625, 4500000.0, -2926179.1875, 4500000.0, 4500000.0, -1932963.0, 4500000.0, -2554485.1875, 4500000.0, 4500000.0, 4500000.0, 4500000.0, 4500000.0, 4500000.0, 4500000.0, 4500000.0, 0.002500000089639798, 0.9407500438392162, 0.35975001752376556, 192.0, 0.0, 0.0, 0.0, 0.0, 0.0, 0.0, 0.0, 0.0, 0.0, 1.6292693382322197E9, 2021-08-18 00:48:58.232
74.0, -1912994.0625, 4500000.0, -2923327.5, 4500000.0, 4500000.0, -1926804.75, 4500000.0, -2550473.625, 4500000.0, 4500000.0, 4500000.0, 4500000.0, 4500000.0, 4500000.0, 4500000.0, 4500000.0, 0.002500000089639798, 0.9407500438392162, 0.35975001752376556, 192.0, 0.0, 0.0, 0.0, 0.0, 0.0, 0.0, 0.0, 0.0, 0.0, 1.6292693382322261E9, 2021-08-18 00:48:58.232
76.0, -1917106.3125, 4500000.0, -2926232.25, 4500000.0, 4500000.0, -1932730.3125, 4500000.0, -2554319.8125, 4500000.0, 4500000.0, 4500000.0, 4500000.0, 4500000.0, 4500000.0, 4500000.0, 4500000.0, -0.0020000000949949026, 0.9500000476837158, 0.32600000500679016, 192.0, 127.5, 120.0, 14.5, 88.0, 5.0, 24.0, 0.0, 0.0, 0.0, 1.6292693382322328E9, 2021-08-18 00:48:58.232
78.0, -1913056.3125, 4500000.0, -2923163.8125, 4500000.0, 4500000.0, -1926718.875, 4500000.0, -2551144.6875, 4500000.0, 4500000.0, 4500000.0, 4500000.0, 4500000.0, 4500000.0, 4500000.0, 4500000.0, -0.0020000000949949026, 0.9500000476837158, 0.32600000500679016, 192.0, 0.0, 0.0, 0.0, 0.0, 0.0, 0.0, 0.0, 0.0, 0.0, 1.6292693382322395E9, 2021-08-18 00:48:58.232
80.0, -1916607.5625, 4500000.0, -2925761.4375, 4500000.0, 4500000.0, -1931975.4375, 4500000.0, -2554107.0, 4500000.0, 4500000.0, 4500000.0, 4500000.0, 4500000.0, 4500000.0, 4500000.0, 4500000.0, -0.0020000000949949026, 0.9500000476837158, 0.32600000500679016, 192.0, 0.0, 0.0, 0.0, 0.0, 0.0, 0.0, 0.0, 0.0, 0.0, 1.629269338232246E9, 2021-08-18 00:48:58.232
82.0, -1913153.25, 4500000.0, -2922971.8125, 4500000.0, 4500000.0, -1926679.125, 4500000.0, -2550804.5625, 4500000.0, 4500000.0, 4500000.0, 4500000.0, 4500000.0, 4500000.0, 4500000.0, 4500000.0, -0.0020000000949949026, 0.9500000476837158, 0.32600000500679016, 192.0, 0.0, 0.0, 0.0, 0.0, 0.0, 0.0, 0.0, 0.0, 0.0, 1.6292693382322528E9, 2021-08-18 00:48:58.232
84.0, -1916510.4375, 4500000.0, -2925973.6875, 4500000.0, 4500000.0, -1931533.5, 4500000.0, -2553849.375, 4500000.0, 4500000.0, 4500000.0, 4500000.0, 4500000.0, 4500000.0, 4500000.0, 4500000.0, -0.0020000000949949026, 0.9500000476837158, 0.32600000500679016, 192.0, 0.0, 0.0, 0.0, 0.0, 0.0, 0.0, 0.0, 0.0, 0.0, 1.6292693382322593E9, 2021-08-18 00:48:58.232
86.0, -1913770.3125, 4500000.0, -2923641.9375, 4500000.0, 4500000.0, -1927279.5, 4500000.0, -2551562.0625, 4500000.0, 4500000.0, 4500000.0, 4500000.0, 4500000.0, 4500000.0, 4500000.0, 4500000.0, -0.0020000000949949026, 0.9500000476837158, 0.32600000500679016, 192.0, 0.0, 0.0, 14.5, 96.0, 5.0, 32.0, 0.0, 0.0, 0.0, 1.629269338232266E9, 2021-08-18 00:48:58.232
88.0, -1916084.4375, 4500000.0, -2925987.1875, 4500000.0, 4500000.0, -1930825.875, 4500000.0, -2553636.375, 4500000.0, 4500000.0, 4500000.0, 4500000.0, 4500000.0, 4500000.0, 4500000.0, 4500000.0, -0.0020000000949949026, 0.9500000476837158, 0.32600000500679016, 192.0, 0.0, 0.0, 0.0, 0.0, 0.0, 0.0, 0.0, 0.0, 0.0, 1.6292693382322726E9, 2021-08-18 00:48:58.232
90.0, -1914359.8125, 4500000.0, -2923780.3125, 4500000.0, 4500000.0, -1927534.875, 4500000.0, -2551848.5625, 4500000.0, 4500000.0, 4500000.0, 4500000.0, 4500000.0, 4500000.0, 4500000.0, 4500000.0, -0.0020000000949949026, 0.9500000476837158, 0.32600000500679016, 192.0, 0.0, 0.0, 0.0, 0.0, 0.0, 0.0, 0.0, 0.0, 0.0, 1.6292693382322793E9, 2021-08-18 00:48:58.232
92.0, -1915460.625, 4500000.0, -2925718.5, 4500000.0, 4500000.0, -1929794.25, 4500000.0, -2552876.25, 4500000.0, 4500000.0, 4500000.0, 4500000.0, 4500000.0, 4500000.0, 4500000.0, 4500000.0, -0.0020000000949949026, 0.9500000476837158, 0.32600000500679016, 192.0, 0.0, 0.0, 0.0, 0.0, 0.0, 0.0, 0.0, 0.0, 0.0, 1.6292693382322857E9, 2021-08-18 00:48:58.232
94.0, -1914706.875, 4500000.0, -2924046.375, 4500000.0, 4500000.0, -1928026.6875, 4500000.0, -2552301.1875, 4500000.0, 4500000.0, 4500000.0, 4500000.0, 4500000.0, 4500000.0, 4500000.0, 4500000.0, -0.003000000142492354, 0.9490000605583191, 0.32900001108646393, 192.0, 127.5, 112.0, 14.5, 80.0, 5.0, 48.0, 0.0, 0.0, 0.0, 1.6292693382322924E9, 2021-08-18 00:48:58.232
96.0, -1915339.875, 4500000.0, -2925551.0625, 4500000.0, 4500000.0, -1929032.0625, 4500000.0, -2553018.5625, 4500000.0, 4500000.0, 4500000.0, 4500000.0, 4500000.0, 4500000.0, 4500000.0, 4500000.0, -0.003000000142492354, 0.9490000605583191, 0.32900001108646393, 192.0, 0.0, 0.0, 0.0, 0.0, 0.0, 0.0, 0.0, 0.0, 0.0, 1.629269338232299E9, 2021-08-18 00:48:58.232
98.0, -1915503.9375, 4500000.0, -2924161.6875, 4500000.0, 4500000.0, -1928515.875, 4500000.0, -2552887.5, 4500000.0, 4500000.0, 4500000.0, 4500000.0, 4500000.0, 4500000.0, 4500000.0, 4500000.0, -0.003000000142492354, 0.9490000605583191, 0.32900001108646393, 192.0, 0.0, 0.0, 0.0, 0.0, 0.0, 0.0, 0.0, 0.0, 0.0, 1.6292693382323055E9, 2021-08-18 00:48:58.232
100.0, -1914414.5625, 4500000.0, -2924667.5625, 4500000.0, 4500000.0, -1927831.5, 4500000.0, -2552380.125, 4500000.0, 4500000.0, 4500000.0, 4500000.0, 4500000.0, 4500000.0, 4500000.0, 4500000.0, -0.003000000142492354, 0.9490000605583191, 0.32900001108646393, 192.0, 0.0, 0.0, 0.0, 0.0, 0.0, 0.0, 0.0, 0.0, 0.0, 1.6292693382323124E9, 2021-08-18 00:48:58.232
102.0, -1915889.8125, 4500000.0, -2924875.125, 4500000.0, 4500000.0, -1929809.8125, 4500000.0, -2553699.1875, 4500000.0, 4500000.0, 4500000.0, 4500000.0, 4500000.0, 4500000.0, 4500000.0, 4500000.0, -0.003000000142492354, 0.9490000605583191, 0.32900001108646393, 192.0, 0.0, 0.0, 0.0, 0.0, 0.0, 0.0, 0.0, 0.0, 0.0, 1.6292693382323208E9, 2021-08-18 00:48:58.232
104.0, -1913946.75, 4500000.0, -2924558.625, 4500000.0, 4500000.0, -1927628.0625, 4500000.0, -2552276.625, 4500000.0, 4500000.0, 4500000.0, 4500000.0, 4500000.0, 4500000.0, 4500000.0, 4500000.0, -0.004500000097323209, 0.9565000534057617, 0.3295000120997429, 192.0, 127.5, 104.0, 15.0, 16.0, 5.0, 40.0, 0.0, 0.0, 0.0, 1.6292693382323275E9, 2021-08-18 00:48:58.232
106.0, -1916351.0625, 4500000.0, -2925175.5, 4500000.0, 4500000.0, -1930516.875, 4500000.0, -2553789.375, 4500000.0, 4500000.0, 4500000.0, 4500000.0, 4500000.0, 4500000.0, 4500000.0, 4500000.0, -0.004500000097323209, 0.9565000534057617, 0.3295000120997429, 192.0, 0.0, 0.0, 0.0, 0.0, 0.0, 0.0, 0.0, 0.0, 0.0, 1.629269338232334E9, 2021-08-18 00:48:58.232
108.0, -1914176.8125, 4500000.0, -2924628.375, 4500000.0, 4500000.0, -1927451.0625, 4500000.0, -2551850.625, 4500000.0, 4500000.0, 4500000.0, 4500000.0, 4500000.0, 4500000.0, 4500000.0, 4500000.0, -0.004500000097323209, 0.9565000534057617, 0.3295000120997429, 192.0, 0.0, 0.0, 0.0, 0.0, 0.0, 0.0, 0.0, 0.0, 0.0, 1.6292693382323408E9, 2021-08-18 00:48:58.232
110.0, -1917500.625, 4500000.0, -2925942.75, 4500000.0, 4500000.0, -1931609.0625, 4500000.0, -2554852.5, 4500000.0, 4500000.0, 4500000.0, 4500000.0, 4500000.0, 4500000.0, 4500000.0, 4500000.0, -0.004500000097323209, 0.9565000534057617, 0.3295000120997429, 192.0, 0.0, 0.0, 0.0, 0.0, 0.0, 0.0, 0.0, 0.0, 0.0, 1.6292693382323472E9, 2021-08-18 00:48:58.232
112.0, -1913804.0625, 4500000.0, -2924039.8125, 4500000.0, 4500000.0, -1926706.5, 4500000.0, -2551935.9375, 4500000.0, 4500000.0, 4500000.0, 4500000.0, 4500000.0, 4500000.0, 4500000.0, 4500000.0, -0.004500000097323209, 0.9565000534057617, 0.3295000120997429, 192.0, 0.0, 0.0, 0.0, 0.0, 0.0, 0.0, 0.0, 0.0, 0.0, 1.629269338232354E9, 2021-08-18 00:48:58.232
114.0, -1917508.6875, 4500000.0, -2926004.8125, 4500000.0, 4500000.0, -1931971.6875, 4500000.0, -2554764.5625, 4500000.0, 4500000.0, 4500000.0, 4500000.0, 4500000.0, 4500000.0, 4500000.0, 4500000.0, -0.005250000074738637, 0.9662500619888306, 0.3347500078380108, 192.0, 127.5, 104.0, 15.0, 64.0, 5.0, 80.0, 0.0, 0.0, 0.0, 1.6292693382323608E9, 2021-08-18 00:48:58.232
116.0, -1913141.0625, 4500000.0, -2923477.125, 4500000.0, 4500000.0, -1926219.9375, 4500000.0, -2551185.375, 4500000.0, 4500000.0, 4500000.0, 4500000.0, 4500000.0, 4500000.0, 4500000.0, 4500000.0, -0.005250000074738637, 0.9662500619888306, 0.3347500078380108, 192.0, 0.0, 0.0, 0.0, 0.0, 0.0, 0.0, 0.0, 0.0, 0.0, 1.6292693382323675E9, 2021-08-18 00:48:58.232
118.0, -1917537.75, 4500000.0, -2926223.8125, 4500000.0, 4500000.0, -1932148.125, 4500000.0, -2554950.1875, 4500000.0, 4500000.0, 4500000.0, 4500000.0, 4500000.0, 4500000.0, 4500000.0, 4500000.0, -0.005250000074738637, 0.9662500619888306, 0.3347500078380108, 192.0, 0.0, 0.0, 0.0, 0.0, 0.0, 0.0, 0.0, 0.0, 0.0, 1.6292693382323742E9, 2021-08-18 00:48:58.232
120.0, -1912890.9375, 4500000.0, -2923510.5, 4500000.0, 4500000.0, -1926030.0, 4500000.0, -2550809.4375, 4500000.0, 4500000.0, 4500000.0, 4500000.0, 4500000.0, 4500000.0, 4500000.0, 4500000.0, -0.005250000074738637, 0.9662500619888306, 0.3347500078380108, 192.0, 0.0, 0.0, 0.0, 0.0, 0.0, 0.0, 0.0, 0.0, 0.0, 1.629269338712248E9, 2021-08-18 00:48:58.712
122.0, -1917706.6875, 4500000.0, -2926379.25, 4500000.0, 4500000.0, -1932227.0625, 4500000.0, -2554886.4375, 4500000.0, 4500000.0, 4500000.0, 4500000.0, 4500000.0, 4500000.0, 4500000.0, 4500000.0, -0.005250000074738637, 0.9662500619888306, 0.3347500078380108, 192.0, 0.0, 0.0, 0.0, 0.0, 0.0, 0.0, 0.0, 0.0, 0.0, 1.6292693387124226E9, 2021-08-18 00:48:58.712
124.0, -1913038.5, 4500000.0, -2923183.125, 4500000.0, 4500000.0, -1925908.875, 4500000.0, -2550868.875, 4500000.0, 4500000.0, 4500000.0, 4500000.0, 4500000.0, 4500000.0, 4500000.0, 4500000.0, -0.007625000391271897, 0.9641250669956207, 0.33837500773370266, 192.0, 127.5, 88.0, 15.0, 8.0, 5.0, 88.0, 0.0, 0.0, 0.0, 1.6292693387124321E9, 2021-08-18 00:48:58.712
126.0, -1917608.4375, 4500000.0, -2926704.9375, 4500000.0, 4500000.0, -1932384.75, 4500000.0, -2555266.125, 4500000.0, 4500000.0, 4500000.0, 4500000.0, 4500000.0, 4500000.0, 4500000.0, 4500000.0, -0.007625000391271897, 0.9641250669956207, 0.33837500773370266, 192.0, 0.0, 0.0, 0.0, 0.0, 0.0, 0.0, 0.0, 0.0, 0.0, 1.6292693387124412E9, 2021-08-18 00:48:58.712
128.0, -1913237.0625, 4500000.0, -2923466.4375, 4500000.0, 4500000.0, -1926367.5, 4500000.0, -2551378.5, 4500000.0, 4500000.0, 4500000.0, 4500000.0, 4500000.0, 4500000.0, 4500000.0, 4500000.0, -0.007625000391271897, 0.9641250669956207, 0.33837500773370266, 192.0, 0.0, 0.0, 0.0, 0.0, 0.0, 0.0, 0.0, 0.0, 0.0, 1.6292693387124507E9, 2021-08-18 00:48:58.712
130.0, -1917238.3125, 4500000.0, -2926182.375, 4500000.0, 4500000.0, -1931698.6875, 4500000.0, -2554746.375, 4500000.0, 4500000.0, 4500000.0, 4500000.0, 4500000.0, 4500000.0, 4500000.0, 4500000.0, -0.007625000391271897, 0.9641250669956207, 0.33837500773370266, 192.0, 0.0, 0.0, 0.0, 0.0, 0.0, 0.0, 0.0, 0.0, 0.0, 1.6292693387124631E9, 2021-08-18 00:48:58.712
132.0, -1913681.25, 4500000.0, -2923358.625, 4500000.0, 4500000.0, -1926635.8125, 4500000.0, -2551816.3125, 4500000.0, 4500000.0, 4500000.0, 4500000.0, 4500000.0, 4500000.0, 4500000.0, 4500000.0, -0.007625000391271897, 0.9641250669956207, 0.33837500773370266, 192.0, 0.0, 0.0, 0.0, 0.0, 0.0, 0.0, 0.0, 0.0, 0.0, 1.6292693387124715E9, 2021-08-18 00:48:58.712
134.0, -1916600.4375, 4500000.0, -2926167.9375, 4500000.0, 4500000.0, -1931311.3125, 4500000.0, -2554541.4375, 4500000.0, 4500000.0, 4500000.0, 4500000.0, 4500000.0, 4500000.0, 4500000.0, 4500000.0, -0.015812500299944077, 0.9620625525712967, 0.34618750493973494, 192.0, 127.5, 32.0, 15.0, 0.0, 5.5, 8.0, 0.0, 0.0, 0.0, 1.6292693387124803E9, 2021-08-18 00:48:58.712
136.0, -1913847.5625, 4500000.0, -2923658.4375, 4500000.0, 4500000.0, -1927280.4375, 4500000.0, -2552387.0625, 4500000.0, 4500000.0, 4500000.0, 4500000.0, 4500000.0, 4500000.0, 4500000.0, 4500000.0, -0.015812500299944077, 0.9620625525712967, 0.34618750493973494, 192.0, 0.0, 0.0, 0.0, 0.0, 0.0, 0.0, 0.0, 0.0, 0.0, 1.6292693387124925E9, 2021-08-18 00:48:58.712
138.0, -1915997.0625, 4500000.0, -2926241.4375, 4500000.0, 4500000.0, -1930995.375, 4500000.0, -2554116.0, 4500000.0, 4500000.0, 4500000.0, 4500000.0, 4500000.0, 4500000.0, 4500000.0, 4500000.0, -0.015812500299944077, 0.9620625525712967, 0.34618750493973494, 192.0, 0.0, 0.0, 0.0, 0.0, 0.0, 0.0, 0.0, 0.0, 0.0, 1.6292693387125175E9, 2021-08-18 00:48:58.712
140.0, -1913952.5625, 4500000.0, -2923750.3125, 4500000.0, 4500000.0, -1927867.3125, 4500000.0, -2552309.8125, 4500000.0, 4500000.0, 4500000.0, 4500000.0, 4500000.0, 4500000.0, 4500000.0, 4500000.0, -0.015812500299944077, 0.9620625525712967, 0.34618750493973494, 192.0, 0.0, 0.0, 0.0, 0.0, 0.0, 0.0, 0.0, 0.0, 0.0, 1.6292693387125263E9, 2021-08-18 00:48:58.712
142.0, -1915139.25, 4500000.0, -2925649.3125, 4500000.0, 4500000.0, -1930075.875, 4500000.0, -2553348.9375, 4500000.0, 4500000.0, 4500000.0, 4500000.0, 4500000.0, 4500000.0, 4500000.0, 4500000.0, -0.015812500299944077, 0.9620625525712967, 0.34618750493973494, 192.0, 0.0, 0.0, 0.0, 0.0, 0.0, 0.0, 0.0, 0.0, 0.0, 1.6292693387125404E9, 2021-08-18 00:48:58.712
144.0, -1914830.25, 4500000.0, -2924198.625, 4500000.0, 4500000.0, -1928786.25, 4500000.0, -2552696.625, 4500000.0, 4500000.0, 4500000.0, 4500000.0, 4500000.0, 4500000.0, 4500000.0, 4500000.0, -0.02800000086426735, 0.9720000624656677, 0.3540000021457672, 192.0, 127.5, 16.0, 15.0, 48.0, 5.5, 8.0, 0.0, 0.0, 0.0, 1.6292693387125535E9, 2021-08-18 00:48:58.712
146.0, -1914729.9375, 4500000.0, -2925144.375, 4500000.0, 4500000.0, -1929196.6875, 4500000.0, -2552930.0625, 4500000.0, 4500000.0, 4500000.0, 4500000.0, 4500000.0, 4500000.0, 4500000.0, 4500000.0, -0.02800000086426735, 0.9720000624656677, 0.3540000021457672, 192.0, 0.0, 0.0, 0.0, 0.0, 0.0, 0.0, 0.0, 0.0, 0.0, 1.6292693387125647E9, 2021-08-18 00:48:58.712
148.0, -1915379.625, 4500000.0, -2924554.3125, 4500000.0, 4500000.0, -1929819.5625, 4500000.0, -2553406.875, 4500000.0, 4500000.0, 4500000.0, 4500000.0, 4500000.0, 4500000.0, 4500000.0, 4500000.0, -0.02800000086426735, 0.9720000624656677, 0.3540000021457672, 192.0, 0.0, 0.0, 0.0, 0.0, 0.0, 0.0, 0.0, 0.0, 0.0, 1.6292693387125735E9, 2021-08-18 00:48:58.712
150.0, -1913951.0625, 4500000.0, -2924670.75, 4500000.0, 4500000.0, -1928764.3125, 4500000.0, -2552308.3125, 4500000.0, 4500000.0, 4500000.0, 4500000.0, 4500000.0, 4500000.0, 4500000.0, 4500000.0, -0.02800000086426735, 0.9720000624656677, 0.3540000021457672, 192.0, 0.0, 0.0, 0.0, 0.0, 0.0, 0.0, 0.0, 0.0, 0.0, 1.6292693387125828E9, 2021-08-18 00:48:58.712
152.0, -1915604.8125, 4500000.0, -2924952.375, 4500000.0, 4500000.0, -1930859.625, 4500000.0, -2553582.75, 4500000.0, 4500000.0, 4500000.0, 4500000.0, 4500000.0, 4500000.0, 4500000.0, 4500000.0, -0.02800000086426735, 0.9720000624656677, 0.3540000021457672, 192.0, 0.0, 0.0, 0.0, 0.0, 0.0, 0.0, 0.0, 0.0, 0.0, 1.6292693387125916E9, 2021-08-18 00:48:58.712
154.0, -1914286.875, 4500000.0, -2924692.3125, 4500000.0, 4500000.0, -1929027.1875, 4500000.0, -2552506.125, 4500000.0, 4500000.0, 4500000.0, 4500000.0, 4500000.0, 4500000.0, 4500000.0, 4500000.0, -0.03800000250339508, 0.9780000448226929, 0.3500000238418579, 192.0, 127.0, 104.0, 15.0, 72.0, 5.0, 120.0, 0.0, 0.0, 0.0, 1.6292693387126005E9, 2021-08-18 00:48:58.712
156.0, -1913797.6875, 4500000.0, -2924442.75, 4500000.0, 4500000.0, -1929897.375, 4500000.0, -2552648.25, 4500000.0, 4500000.0, 4500000.0, 4500000.0, 4500000.0, 4500000.0, 4500000.0, 4500000.0, -0.03800000250339508, 0.9780000448226929, 0.3500000238418579, 192.0, 0.0, 0.0, 0.0, 0.0, 0.0, 0.0, 0.0, 0.0, 0.0, 1.6292693387126095E9, 2021-08-18 00:48:58.712
158.0, -1914308.8125, 4500000.0, -2925332.25, 4500000.0, 4500000.0, -1929488.0625, 4500000.0, -2552829.75, 4500000.0, 4500000.0, 4500000.0, 4500000.0, 4500000.0, 4500000.0, 4500000.0, 4500000.0, -0.03800000250339508, 0.9780000448226929, 0.3500000238418579, 192.0, 0.0, 0.0, 0.0, 0.0, 0.0, 0.0, 0.0, 0.0, 0.0, 1.6292693387126186E9, 2021-08-18 00:48:58.712
160.0, -1914668.8125, 4500000.0, -2925276.9375, 4500000.0, 4500000.0, -1931006.625, 4500000.0, -2553347.8125, 4500000.0, 4500000.0, 4500000.0, 4500000.0, 4500000.0, 4500000.0, 4500000.0, 4500000.0, -0.03800000250339508, 0.9780000448226929, 0.3500000238418579, 192.0, 0.0, 0.0, 0.0, 0.0, 0.0, 0.0, 0.0, 0.0, 0.0, 1.6292693387126272E9, 2021-08-18 00:48:58.712
162.0, -1914755.0625, 4500000.0, -2925739.3125, 4500000.0, 4500000.0, -1930005.5625, 4500000.0, -2553071.0625, 4500000.0, 4500000.0, 4500000.0, 4500000.0, 4500000.0, 4500000.0, 4500000.0, 4500000.0, -0.03800000250339508, 0.9780000448226929, 0.3500000238418579, 192.0, 0.0, 0.0, 0.0, 0.0, 0.0, 0.0, 0.0, 0.0, 0.0, 1.6292693387126365E9, 2021-08-18 00:48:58.712
164.0, -1915021.6875, 4500000.0, -2925683.625, 4500000.0, 4500000.0, -1931750.25, 4500000.0, -2553434.25, 4500000.0, 4500000.0, 4500000.0, 4500000.0, 4500000.0, 4500000.0, 4500000.0, 4500000.0, -0.04200000315904617, 0.9720000624656677, 0.3500000238418579, 192.0, 127.0, 88.0, 15.0, 48.0, 5.0, 120.0, 0.0, 0.0, 0.0, 1.629269338712646E9, 2021-08-18 00:48:58.712
166.0, -1914589.3125, 4500000.0, -2925666.375, 4500000.0, 4500000.0, -1929739.5, 4500000.0, -2552866.125, 4500000.0, 4500000.0, 4500000.0, 4500000.0, 4500000.0, 4500000.0, 4500000.0, 4500000.0, -0.04200000315904617, 0.9720000624656677, 0.3500000238418579, 192.0, 0.0, 0.0, 0.0, 0.0, 0.0, 0.0, 0.0, 0.0, 0.0, 1.629269338712655E9, 2021-08-18 00:48:58.712
168.0, -1914839.8125, 4500000.0, -2925688.3125, 4500000.0, 4500000.0, -1931771.625, 4500000.0, -2553777.0, 4500000.0, 4500000.0, 4500000.0, 4500000.0, 4500000.0, 4500000.0, 4500000.0, 4500000.0, -0.04200000315904617, 0.9720000624656677, 0.3500000238418579, 192.0, 0.0, 0.0, 0.0, 0.0, 0.0, 0.0, 0.0, 0.0, 0.0, 1.629269338712664E9, 2021-08-18 00:48:58.712
170.0, -1913452.125, 4500000.0, -2924758.125, 4500000.0, 4500000.0, -1928986.5, 4500000.0, -2552250.75, 4500000.0, 4500000.0, 4500000.0, 4500000.0, 4500000.0, 4500000.0, 4500000.0, 4500000.0, -0.04200000315904617, 0.9720000624656677, 0.3500000238418579, 192.0, 0.0, 0.0, 0.0, 0.0, 0.0, 0.0, 0.0, 0.0, 0.0, 1.6292693387126768E9, 2021-08-18 00:48:58.712
172.0, -1914414.5625, 4500000.0, -2925303.75, 4500000.0, 4500000.0, -1931471.8125, 4500000.0, -2552924.625, 4500000.0, 4500000.0, 4500000.0, 4500000.0, 4500000.0, 4500000.0, 4500000.0, 4500000.0, -0.04200000315904617, 0.9720000624656677, 0.3500000238418579, 192.0, 0.0, 0.0, 0.0, 0.0, 0.0, 0.0, 0.0, 0.0, 0.0, 1.629269338712696E9, 2021-08-18 00:48:58.712
174.0, -1913640.9375, 4500000.0, -2924891.8125, 4500000.0, 4500000.0, -1929126.9375, 4500000.0, -2552263.125, 4500000.0, 4500000.0, 4500000.0, 4500000.0, 4500000.0, 4500000.0, 4500000.0, 4500000.0, -0.03800000250339508, 0.9660000205039978, 0.3540000021457672, 192.0, 127.0, 104.0, 15.0, 24.0, 5.5, 8.0, 0.0, 0.0, 0.0, 1.6292693387127082E9, 2021-08-18 00:48:58.712
176.0, -1914712.6875, 4500000.0, -2925348.75, 4500000.0, 4500000.0, -1931484.0, 4500000.0, -2553760.875, 4500000.0, 4500000.0, 4500000.0, 4500000.0, 4500000.0, 4500000.0, 4500000.0, 4500000.0, -0.03800000250339508, 0.9660000205039978, 0.3540000021457672, 192.0, 0.0, 0.0, 0.0, 0.0, 0.0, 0.0, 0.0, 0.0, 0.0, 1.6292693387127154E9, 2021-08-18 00:48:58.712
178.0, -1913212.3125, 4500000.0, -2924870.8125, 4500000.0, 4500000.0, -1929301.875, 4500000.0, -2551708.5, 4500000.0, 4500000.0, 4500000.0, 4500000.0, 4500000.0, 4500000.0, 4500000.0, 4500000.0, -0.03800000250339508, 0.9660000205039978, 0.3540000021457672, 192.0, 0.0, 0.0, 0.0, 0.0, 0.0, 0.0, 0.0, 0.0, 0.0, 1.6292693387127225E9, 2021-08-18 00:48:58.712
180.0, -1914671.4375, 4500000.0, -2925794.625, 4500000.0, 4500000.0, -1931851.5, 4500000.0, -2553037.3125, 4500000.0, 4500000.0, 4500000.0, 4500000.0, 4500000.0, 4500000.0, 4500000.0, 4500000.0, -0.03800000250339508, 0.9660000205039978, 0.3540000021457672, 192.0, 0.0, 0.0, 0.0, 0.0, 0.0, 0.0, 0.0, 0.0, 0.0, 1.6292693387127297E9, 2021-08-18 00:48:58.712
182.0, -1913835.1875, 4500000.0, -2925574.125, 4500000.0, 4500000.0, -1930102.6875, 4500000.0, -2552461.125, 4500000.0, 4500000.0, 4500000.0, 4500000.0, 4500000.0, 4500000.0, 4500000.0, 4500000.0, -0.03800000250339508, 0.9660000205039978, 0.3540000021457672, 192.0, 0.0, 0.0, 0.0, 0.0, 0.0, 0.0, 0.0, 0.0, 0.0, 1.629269338712737E9, 2021-08-18 00:48:58.712
184.0, -1915077.0, 4500000.0, -2926271.4375, 4500000.0, 4500000.0, -1932158.4375, 4500000.0, -2553395.0625, 4500000.0, 4500000.0, 4500000.0, 4500000.0, 4500000.0, 4500000.0, 4500000.0, 4500000.0, -0.03400000184774399, 0.9500000476837158, 0.35600000619888306, 192.0, 127.0, 120.0, 14.5, 88.0, 5.5, 16.0, 0.0, 0.0, 0.0, 1.6292693387127447E9, 2021-08-18 00:48:58.712
186.0, -1913691.375, 4500000.0, -2925636.9375, 4500000.0, 4500000.0, -1930425.1875, 4500000.0, -2552575.875, 4500000.0, 4500000.0, 4500000.0, 4500000.0, 4500000.0, 4500000.0, 4500000.0, 4500000.0, -0.03400000184774399, 0.9500000476837158, 0.35600000619888306, 192.0, 0.0, 0.0, 0.0, 0.0, 0.0, 0.0, 0.0, 0.0, 0.0, 1.6292693387127516E9, 2021-08-18 00:48:58.712
188.0, -1914827.625, 4500000.0, -2926521.9375, 4500000.0, 4500000.0, -1932309.75, 4500000.0, -2553595.6875, 4500000.0, 4500000.0, 4500000.0, 4500000.0, 4500000.0, 4500000.0, 4500000.0, 4500000.0, -0.03400000184774399, 0.9500000476837158, 0.35600000619888306, 192.0, 0.0, 0.0, 0.0, 0.0, 0.0, 0.0, 0.0, 0.0, 0.0, 1.6292693387127588E9, 2021-08-18 00:48:58.712
190.0, -1913197.875, 4500000.0, -2925571.5, 4500000.0, 4500000.0, -1930473.375, 4500000.0, -2551949.4375, 4500000.0, 4500000.0, 4500000.0, 4500000.0, 4500000.0, 4500000.0, 4500000.0, 4500000.0, -0.03400000184774399, 0.9500000476837158, 0.35600000619888306, 192.0, 0.0, 0.0, 0.0, 0.0, 0.0, 0.0, 0.0, 0.0, 0.0, 1.6292693387127817E9, 2021-08-18 00:48:58.712
192.0, -1914743.8125, 4500000.0, -2926547.25, 4500000.0, 4500000.0, -1931779.125, 4500000.0, -2553079.125, 4500000.0, 4500000.0, 4500000.0, 4500000.0, 4500000.0, 4500000.0, 4500000.0, 4500000.0, -0.028000001795589924, 0.9420000314712524, 0.3590000122785568, 192.0, 127.5, 40.0, 14.5, 24.0, 5.5, 40.0, 0.0, 0.0, 0.0, 1.6292693387128072E9, 2021-08-18 00:48:58.712
194.0, -1914068.4375, 4500000.0, -2926192.125, 4500000.0, 4500000.0, -1930914.375, 4500000.0, -2552594.25, 4500000.0, 4500000.0, 4500000.0, 4500000.0, 4500000.0, 4500000.0, 4500000.0, 4500000.0, -0.028000001795589924, 0.9420000314712524, 0.3590000122785568, 192.0, 0.0, 0.0, 0.0, 0.0, 0.0, 0.0, 0.0, 0.0, 0.0, 1.6292693387128143E9, 2021-08-18 00:48:58.712
196.0, -1915271.25, 4500000.0, -2927226.9375, 4500000.0, 4500000.0, -1932219.0, 4500000.0, -2553318.9375, 4500000.0, 4500000.0, 4500000.0, 4500000.0, 4500000.0, 4500000.0, 4500000.0, 4500000.0, -0.028000001795589924, 0.9420000314712524, 0.3590000122785568, 192.0, 0.0, 0.0, 0.0, 0.0, 0.0, 0.0, 0.0, 0.0, 0.0, 1.6292693387128215E9, 2021-08-18 00:48:58.712
198.0, -1914176.8125, 4500000.0, -2926314.375, 4500000.0, 4500000.0, -1931281.3125, 4500000.0, -2552420.4375, 4500000.0, 4500000.0, 4500000.0, 4500000.0, 4500000.0, 4500000.0, 4500000.0, 4500000.0, -0.028000001795589924, 0.9420000314712524, 0.3590000122785568, 192.0, 0.0, 0.0, 0.0, 0.0, 0.0, 0.0, 0.0, 0.0, 0.0, 1.6292693387128448E9, 2021-08-18 00:48:58.712
200.0, -1914818.4375, 4500000.0, -2926923.1875, 4500000.0, 4500000.0, -1931395.125, 4500000.0, -2553190.6875, 4500000.0, 4500000.0, 4500000.0, 4500000.0, 4500000.0, 4500000.0, 4500000.0, 4500000.0, -0.028000001795589924, 0.9420000314712524, 0.3590000122785568, 192.0, 0.0, 0.0, 0.0, 0.0, 0.0, 0.0, 0.0, 0.0, 0.0, 1.6292693387128515E9, 2021-08-18 00:48:58.712
202.0, -1914108.1875, 4500000.0, -2926465.125, 4500000.0, 4500000.0, -1931436.9375, 4500000.0, -2552593.125, 4500000.0, 4500000.0, 4500000.0, 4500000.0, 4500000.0, 4500000.0, 4500000.0, 4500000.0, -0.01900000125169754, 0.9410000443458557, 0.36250001937150955, 192.0, 127.5, 88.0, 14.5, 48.0, 5.5, 56.0, 0.0, 0.0, 0.0, 1.6292693387128773E9, 2021-08-18 00:48:58.712
204.0, -1914364.6875, 4500000.0, -2926849.3125, 4500000.0, 4500000.0, -1930881.75, 4500000.0, -2552807.0625, 4500000.0, 4500000.0, 4500000.0, 4500000.0, 4500000.0, 4500000.0, 4500000.0, 4500000.0, -0.01900000125169754, 0.9410000443458557, 0.36250001937150955, 192.0, 0.0, 0.0, 0.0, 0.0, 0.0, 0.0, 0.0, 0.0, 0.0, 1.6292693387128844E9, 2021-08-18 00:48:58.712
206.0, -1914295.875, 4500000.0, -2926612.125, 4500000.0, 4500000.0, -1931506.125, 4500000.0, -2552894.625, 4500000.0, 4500000.0, 4500000.0, 4500000.0, 4500000.0, 4500000.0, 4500000.0, 4500000.0, -0.01900000125169754, 0.9410000443458557, 0.36250001937150955, 192.0, 0.0, 0.0, 0.0, 0.0, 0.0, 0.0, 0.0, 0.0, 0.0, 1.629269338712916E9, 2021-08-18 00:48:58.712
208.0, -1914436.5, 4500000.0, -2926812.75, 4500000.0, 4500000.0, -1930443.375, 4500000.0, -2552909.625, 4500000.0, 4500000.0, 4500000.0, 4500000.0, 4500000.0, 4500000.0, 4500000.0, 4500000.0, -0.01900000125169754, 0.9410000443458557, 0.36250001937150955, 192.0, 0.0, 0.0, 0.0, 0.0, 0.0, 0.0, 0.0, 0.0, 0.0, 1.6292693387129228E9, 2021-08-18 00:48:58.712
210.0, -1914584.0625, 4500000.0, -2926945.3125, 4500000.0, 4500000.0, -1931671.3125, 4500000.0, -2553431.0625, 4500000.0, 4500000.0, 4500000.0, 4500000.0, 4500000.0, 4500000.0, 4500000.0, 4500000.0, -0.01900000125169754, 0.9410000443458557, 0.36250001937150955, 192.0, 0.0, 0.0, 0.0, 0.0, 0.0, 0.0, 0.0, 0.0, 0.0, 1.6292693387129295E9, 2021-08-18 00:48:58.712
212.0, -1914789.5625, 4500000.0, -2927523.5625, 4500000.0, 4500000.0, -1930642.5, 4500000.0, -2553236.8125, 4500000.0, 4500000.0, 4500000.0, 4500000.0, 4500000.0, 4500000.0, 4500000.0, 4500000.0, -0.008500000578351319, 0.9465000331401825, 0.36225001886487007, 192.0, 0.0, 8.0, 14.5, 96.0, 5.5, 40.0, 0.0, 0.0, 0.0, 1.6292693387129364E9, 2021-08-18 00:48:58.712
214.0, -1915093.125, 4500000.0, -2927644.3125, 4500000.0, 4500000.0, -1932198.5625, 4500000.0, -2553747.5625, 4500000.0, 4500000.0, 4500000.0, 4500000.0, 4500000.0, 4500000.0, 4500000.0, 4500000.0, -0.008500000578351319, 0.9465000331401825, 0.36225001886487007, 192.0, 0.0, 0.0, 0.0, 0.0, 0.0, 0.0, 0.0, 0.0, 0.0, 1.6292693387129433E9, 2021-08-18 00:48:58.712
216.0, -1914629.0625, 4500000.0, -2927780.4375, 4500000.0, 4500000.0, -1930676.8125, 4500000.0, -2553219.1875, 4500000.0, 4500000.0, 4500000.0, 4500000.0, 4500000.0, 4500000.0, 4500000.0, 4500000.0, -0.008500000578351319, 0.9465000331401825, 0.36225001886487007, 192.0, 0.0, 0.0, 0.0, 0.0, 0.0, 0.0, 0.0, 0.0, 0.0, 1.6292693387129502E9, 2021-08-18 00:48:58.712
218.0, -1914903.1875, 4500000.0, -2927984.4375, 4500000.0, 4500000.0, -1932551.625, 4500000.0, -2553997.5, 4500000.0, 4500000.0, 4500000.0, 4500000.0, 4500000.0, 4500000.0, 4500000.0, 4500000.0, -0.008500000578351319, 0.9465000331401825, 0.36225001886487007, 192.0, 0.0, 0.0, 0.0, 0.0, 0.0, 0.0, 0.0, 0.0, 0.0, 1.6292693387129755E9, 2021-08-18 00:48:58.712
220.0, -1914029.25, 4500000.0, -2927538.0, 4500000.0, 4500000.0, -1930467.5625, 4500000.0, -2553100.5, 4500000.0, 4500000.0, 4500000.0, 4500000.0, 4500000.0, 4500000.0, 4500000.0, 4500000.0, -0.008500000578351319, 0.9465000331401825, 0.36225001886487007, 192.0, 0.0, 0.0, 0.0, 0.0, 0.0, 0.0, 0.0, 0.0, 0.0, 1.629269338712983E9, 2021-08-18 00:48:58.712
222.0, -1914227.25, 4500000.0, -2927706.5625, 4500000.0, 4500000.0, -1932097.3125, 4500000.0, -2552911.6875, 4500000.0, 4500000.0, 4500000.0, 4500000.0, 4500000.0, 4500000.0, 4500000.0, 4500000.0, -0.0012500002630986273, 0.9602500349283218, 0.3611250165849924, 192.0, 0.0, 24.0, 15.0, 56.0, 5.5, 32.0, 0.0, 0.0, 0.0, 1.6292693387129898E9, 2021-08-18 00:48:58.712
224.0, -1913576.0625, 4500000.0, -2927522.4375, 4500000.0, 4500000.0, -1930055.0625, 4500000.0, -2552368.875, 4500000.0, 4500000.0, 4500000.0, 4500000.0, 4500000.0, 4500000.0, 4500000.0, 4500000.0, -0.0012500002630986273, 0.9602500349283218, 0.3611250165849924, 192.0, 0.0, 0.0, 0.0, 0.0, 0.0, 0.0, 0.0, 0.0, 0.0, 1.629269338713013E9, 2021-08-18 00:48:58.713
226.0, -1914611.4375, 4500000.0, -2928103.5, 4500000.0, 4500000.0, -1932189.0, 4500000.0, -2553303.375, 4500000.0, 4500000.0, 4500000.0, 4500000.0, 4500000.0, 4500000.0, 4500000.0, 4500000.0, -0.0012500002630986273, 0.9602500349283218, 0.3611250165849924, 192.0, 0.0, 0.0, 0.0, 0.0, 0.0, 0.0, 0.0, 0.0, 0.0, 1.6292693387130198E9, 2021-08-18 00:48:58.713
228.0, -1913330.4375, 4500000.0, -2927280.0, 4500000.0, 4500000.0, -1929964.875, 4500000.0, -2552145.1875, 4500000.0, 4500000.0, 4500000.0, 4500000.0, 4500000.0, 4500000.0, 4500000.0, 4500000.0, -0.0012500002630986273, 0.9602500349283218, 0.3611250165849924, 192.0, 0.0, 0.0, 0.0, 0.0, 0.0, 0.0, 0.0, 0.0, 0.0, 1.6292693387130456E9, 2021-08-18 00:48:58.713
230.0, -1914396.1875, 4500000.0, -2928132.9375, 4500000.0, 4500000.0, -1932139.125, 4500000.0, -2553373.6875, 4500000.0, 4500000.0, 4500000.0, 4500000.0, 4500000.0, 4500000.0, 4500000.0, 4500000.0, -0.0012500002630986273, 0.9602500349283218, 0.3611250165849924, 192.0, 0.0, 0.0, 0.0, 0.0, 0.0, 0.0, 0.0, 0.0, 0.0, 1.6292693387130527E9, 2021-08-18 00:48:58.713
232.0, -1913327.625, 4500000.0, -2927713.5, 4500000.0, 4500000.0, -1930224.5625, 4500000.0, -2552368.3125, 4500000.0, 4500000.0, 4500000.0, 4500000.0, 4500000.0, 4500000.0, 4500000.0, 4500000.0, 0.010000000707805157, 0.9540000557899475, 0.3580000102519989, 192.0, 0.0, 40.0, 14.5, 104.0, 5.5, 24.0, 0.0, 0.0, 0.0, 1.62926933871306E9, 2021-08-18 00:48:58.713
234.0, -1914358.125, 4500000.0, -2928334.6875, 4500000.0, 4500000.0, -1931926.6875, 4500000.0, -2553401.4375, 4500000.0, 4500000.0, 4500000.0, 4500000.0, 4500000.0, 4500000.0, 4500000.0, 4500000.0, 0.010000000707805157, 0.9540000557899475, 0.3580000102519989, 192.0, 0.0, 0.0, 0.0, 0.0, 0.0, 0.0, 0.0, 0.0, 0.0, 1.6292693387130828E9, 2021-08-18 00:48:58.713
236.0, -1912893.75, 4500000.0, -2927865.1875, 4500000.0, 4500000.0, -1930437.0, 4500000.0, -2552451.0, 4500000.0, 4500000.0, 4500000.0, 4500000.0, 4500000.0, 4500000.0, 4500000.0, 4500000.0, 0.010000000707805157, 0.9540000557899475, 0.3580000102519989, 192.0, 0.0, 0.0, 0.0, 0.0, 0.0, 0.0, 0.0, 0.0, 0.0, 1.6292693387131093E9, 2021-08-18 00:48:58.713
238.0, -1914057.1875, 4500000.0, -2928631.875, 4500000.0, 4500000.0, -1931947.125, 4500000.0, -2553413.8125, 4500000.0, 4500000.0, 4500000.0, 4500000.0, 4500000.0, 4500000.0, 4500000.0, 4500000.0, 0.010000000707805157, 0.9540000557899475, 0.3580000102519989, 192.0, 0.0, 0.0, 0.0, 0.0, 0.0, 0.0, 0.0, 0.0, 0.0, 1.629269338713117E9, 2021-08-18 00:48:58.713
240.0, -1912968.1875, 4500000.0, -2928045.5625, 4500000.0, 4500000.0, -1930558.6875, 4500000.0, -2552626.875, 4500000.0, 4500000.0, 4500000.0, 4500000.0, 4500000.0, 4500000.0, 4500000.0, 4500000.0, 0.010000000707805157, 0.9540000557899475, 0.3580000102519989, 192.0, 0.0, 0.0, 0.0, 0.0, 0.0, 0.0, 0.0, 0.0, 0.0, 1.629269338713127E9, 2021-08-18 00:48:58.713
242.0, -1913757.375, 4500000.0, -2928577.125, 4500000.0, 4500000.0, -1931605.875, 4500000.0, -2553139.125, 4500000.0, 4500000.0, 4500000.0, 4500000.0, 4500000.0, 4500000.0, 4500000.0, 4500000.0, 0.0020000000949949026, 0.940000057220459, 0.3540000021457672, 192.0, 0.0, 8.0, 14.5, 48.0, 5.5, 8.0, 0.0, 0.0, 0.0, 1.629269339193493E9, 2021-08-18 00:48:59.193
244.0, -1912428.0, 4500000.0, -2927800.3125, 4500000.0, 4500000.0, -1930387.6875, 4500000.0, -2552258.8125, 4500000.0, 4500000.0, 4500000.0, 4500000.0, 4500000.0, 4500000.0, 4500000.0, 4500000.0, 0.0020000000949949026, 0.940000057220459, 0.3540000021457672, 192.0, 0.0, 0.0, 0.0, 0.0, 0.0, 0.0, 0.0, 0.0, 0.0, 1.6292693391935015E9, 2021-08-18 00:48:59.193
246.0, -1913673.75, 4500000.0, -2928603.375, 4500000.0, 4500000.0, -1931206.125, 4500000.0, -2553214.875, 4500000.0, 4500000.0, 4500000.0, 4500000.0, 4500000.0, 4500000.0, 4500000.0, 4500000.0, 0.0020000000949949026, 0.940000057220459, 0.3540000021457672, 192.0, 0.0, 0.0, 0.0, 0.0, 0.0, 0.0, 0.0, 0.0, 0.0, 1.6292693391935089E9, 2021-08-18 00:48:59.193
248.0, -1912530.5625, 4500000.0, -2927775.1875, 4500000.0, 4500000.0, -1930608.0, 4500000.0, -2552599.5, 4500000.0, 4500000.0, 4500000.0, 4500000.0, 4500000.0, 4500000.0, 4500000.0, 4500000.0, 0.0020000000949949026, 0.940000057220459, 0.3540000021457672, 192.0, 0.0, 0.0, 0.0, 0.0, 0.0, 0.0, 0.0, 0.0, 0.0, 1.6292693391935155E9, 2021-08-18 00:48:59.193
250.0, -1913517.0, 4500000.0, -2928640.5, 4500000.0, 4500000.0, -1931093.625, 4500000.0, -2553287.25, 4500000.0, 4500000.0, 4500000.0, 4500000.0, 4500000.0, 4500000.0, 4500000.0, 4500000.0, 0.0020000000949949026, 0.940000057220459, 0.3540000021457672, 192.0, 0.0, 0.0, 0.0, 0.0, 0.0, 0.0, 0.0, 0.0, 0.0, 1.6292693391935244E9, 2021-08-18 00:48:59.193
252.0, -1912611.0, 4500000.0, -2928126.0, 4500000.0, 4500000.0, -1930924.5, 4500000.0, -2552611.875, 4500000.0, 4500000.0, 4500000.0, 4500000.0, 4500000.0, 4500000.0, 4500000.0, 4500000.0, 0.0020000000949949026, 0.940000057220459, 0.3400000035762787, 192.0, 0.0, 8.0, 14.5, 48.0, 5.0, 80.0, 0.0, 0.0, 0.0, 1.6292693391935315E9, 2021-08-18 00:48:59.193
254.0, -1913201.0625, 4500000.0, -2928705.9375, 4500000.0, 4500000.0, -1930720.6875, 4500000.0, -2552668.125, 4500000.0, 4500000.0, 4500000.0, 4500000.0, 4500000.0, 4500000.0, 4500000.0, 4500000.0, 0.0020000000949949026, 0.940000057220459, 0.3400000035762787, 192.0, 0.0, 0.0, 0.0, 0.0, 0.0, 0.0, 0.0, 0.0, 0.0, 1.6292693391935384E9, 2021-08-18 00:48:59.193
0.0, -1912966.6875, 4500000.0, -2928397.875, 4500000.0, 4500000.0, -1931366.625, 4500000.0, -2552716.5, 4500000.0, 4500000.0, 4500000.0, 4500000.0, 4500000.0, 4500000.0, 4500000.0, 4500000.0, 0.0020000000949949026, 0.940000057220459, 0.3400000035762787, 192.0, 0.0, 0.0, 0.0, 0.0, 0.0, 0.0, 0.0, 0.0, 0.0, 1.629269339193545E9, 2021-08-18 00:48:59.193
2.0, -1912977.9375, 4500000.0, -2928658.125, 4500000.0, 4500000.0, -1930426.3125, 4500000.0, -2552500.3125, 4500000.0, 4500000.0, 4500000.0, 4500000.0, 4500000.0, 4500000.0, 4500000.0, 4500000.0, 0.0020000000949949026, 0.940000057220459, 0.3400000035762787, 192.0, 0.0, 0.0, 0.0, 0.0, 0.0, 0.0, 0.0, 0.0, 0.0, 1.629269339193552E9, 2021-08-18 00:48:59.193
4.0, -1913542.3125, 4500000.0, -2929036.875, 4500000.0, 4500000.0, -1931849.4375, 4500000.0, -2553279.75, 4500000.0, 4500000.0, 4500000.0, 4500000.0, 4500000.0, 4500000.0, 4500000.0, 4500000.0, 0.0020000000949949026, 0.940000057220459, 0.3400000035762787, 192.0, 0.0, 0.0, 0.0, 0.0, 0.0, 0.0, 0.0, 0.0, 0.0, 1.6292693391935587E9, 2021-08-18 00:48:59.193
6.0, -1913034.1875, 4500000.0, -2928911.25, 4500000.0, 4500000.0, -1930115.0625, 4500000.0, -2552578.6875, 4500000.0, 4500000.0, 4500000.0, 4500000.0, 4500000.0, 4500000.0, 4500000.0, 4500000.0, 0.004000000189989805, 0.9540000557899475, 0.33400002121925354, 192.0, 0.0, 16.0, 14.5, 104.0, 5.0, 56.0, 0.0, 0.0, 0.0, 1.6292693391935656E9, 2021-08-18 00:48:59.193
8.0, -1913459.0625, 4500000.0, -2928829.875, 4500000.0, 4500000.0, -1931331.1875, 4500000.0, -2552874.1875, 4500000.0, 4500000.0, 4500000.0, 4500000.0, 4500000.0, 4500000.0, 4500000.0, 4500000.0, 0.004000000189989805, 0.9540000557899475, 0.33400002121925354, 192.0, 0.0, 0.0, 0.0, 0.0, 0.0, 0.0, 0.0, 0.0, 0.0, 1.6292693391935723E9, 2021-08-18 00:48:59.193
10.0, -1912929.5625, 4500000.0, -2928285.375, 4500000.0, 4500000.0, -1929427.3125, 4500000.0, -2552350.125, 4500000.0, 4500000.0, 4500000.0, 4500000.0, 4500000.0, 4500000.0, 4500000.0, 4500000.0, 0.004000000189989805, 0.9540000557899475, 0.33400002121925354, 192.0, 0.0, 0.0, 0.0, 0.0, 0.0, 0.0, 0.0, 0.0, 0.0, 1.6292693391935787E9, 2021-08-18 00:48:59.193
12.0, -1914050.8125, 4500000.0, -2928636.1875, 4500000.0, 4500000.0, -1931609.625, 4500000.0, -2553510.9375, 4500000.0, 4500000.0, 4500000.0, 4500000.0, 4500000.0, 4500000.0, 4500000.0, 4500000.0, 0.004000000189989805, 0.9540000557899475, 0.33400002121925354, 192.0, 0.0, 0.0, 0.0, 0.0, 0.0, 0.0, 0.0, 0.0, 0.0, 1.6292693391935856E9, 2021-08-18 00:48:59.193
14.0, -1913367.9375, 4500000.0, -2928111.5625, 4500000.0, 4500000.0, -1929741.75, 4500000.0, -2552885.4375, 4500000.0, 4500000.0, 4500000.0, 4500000.0, 4500000.0, 4500000.0, 4500000.0, 4500000.0, 0.004000000189989805, 0.9540000557899475, 0.33400002121925354, 192.0, 0.0, 0.0, 0.0, 0.0, 0.0, 0.0, 0.0, 0.0, 0.0, 1.6292693391935923E9, 2021-08-18 00:48:59.193
16.0, -1914200.4375, 4500000.0, -2928295.5, 4500000.0, 4500000.0, -1931621.4375, 4500000.0, -2553484.6875, 4500000.0, 4500000.0, 4500000.0, 4500000.0, 4500000.0, 4500000.0, 4500000.0, 4500000.0, 0.012000000104308128, 0.9640000462532043, 0.328000009059906, 192.0, 0.0, 48.0, 15.0, 16.0, 5.0, 32.0, 0.0, 0.0, 0.0, 1.6292693391935997E9, 2021-08-18 00:48:59.193
18.0, -1913094.9375, 4500000.0, -2927590.6875, 4500000.0, 4500000.0, -1929673.6875, 4500000.0, -2552235.75, 4500000.0, 4500000.0, 4500000.0, 4500000.0, 4500000.0, 4500000.0, 4500000.0, 4500000.0, 0.012000000104308128, 0.9640000462532043, 0.328000009059906, 192.0, 0.0, 0.0, 0.0, 0.0, 0.0, 0.0, 0.0, 0.0, 0.0, 1.62926933919362E9, 2021-08-18 00:48:59.193
20.0, -1914189.1875, 4500000.0, -2928357.75, 4500000.0, 4500000.0, -1932155.25, 4500000.0, -2552952.5625, 4500000.0, 4500000.0, 4500000.0, 4500000.0, 4500000.0, 4500000.0, 4500000.0, 4500000.0, 0.012000000104308128, 0.9640000462532043, 0.328000009059906, 192.0, 0.0, 0.0, 0.0, 0.0, 0.0, 0.0, 0.0, 0.0, 0.0, 1.6292693391936269E9, 2021-08-18 00:48:59.193
22.0, -1912992.375, 4500000.0, -2927491.875, 4500000.0, 4500000.0, -1930251.9375, 4500000.0, -2552387.625, 4500000.0, 4500000.0, 4500000.0, 4500000.0, 4500000.0, 4500000.0, 4500000.0, 4500000.0, 0.012000000104308128, 0.9640000462532043, 0.328000009059906, 192.0, 0.0, 0.0, 0.0, 0.0, 0.0, 0.0, 0.0, 0.0, 0.0, 1.6292693391936333E9, 2021-08-18 00:48:59.193
24.0, -1914321.75, 4500000.0, -2928341.625, 4500000.0, 4500000.0, -1932537.1875, 4500000.0, -2552602.125, 4500000.0, 4500000.0, 4500000.0, 4500000.0, 4500000.0, 4500000.0, 4500000.0, 4500000.0, 0.012000000104308128, 0.9610000550746918, 0.32500001788139343, 192.0, 0.0, 48.0, 14.5, 120.0, 5.0, 8.0, 0.0, 0.0, 0.0, 1.62926933919364E9, 2021-08-18 00:48:59.193
26.0, -1912634.625, 4500000.0, -2927113.125, 4500000.0, 4500000.0, -1930316.8125, 4500000.0, -2551490.25, 4500000.0, 4500000.0, 4500000.0, 4500000.0, 4500000.0, 4500000.0, 4500000.0, 4500000.0, 0.012000000104308128, 0.9610000550746918, 0.32500001788139343, 192.0, 0.0, 0.0, 0.0, 0.0, 0.0, 0.0, 0.0, 0.0, 0.0, 1.629269339193647E9, 2021-08-18 00:48:59.193
28.0, -1914052.875, 4500000.0, -2928267.0, 4500000.0, 4500000.0, -1932630.0, 4500000.0, -2552801.25, 4500000.0, 4500000.0, 4500000.0, 4500000.0, 4500000.0, 4500000.0, 4500000.0, 4500000.0, 0.012000000104308128, 0.9610000550746918, 0.32500001788139343, 192.0, 0.0, 0.0, 0.0, 0.0, 0.0, 0.0, 0.0, 0.0, 0.0, 1.6292693391936533E9, 2021-08-18 00:48:59.193
30.0, -1912903.875, 4500000.0, -2927646.9375, 4500000.0, 4500000.0, -1931385.9375, 4500000.0, -2551662.9375, 4500000.0, 4500000.0, 4500000.0, 4500000.0, 4500000.0, 4500000.0, 4500000.0, 4500000.0, 0.012000000104308128, 0.9610000550746918, 0.32500001788139343, 192.0, 0.0, 0.0, 0.0, 0.0, 0.0, 0.0, 0.0, 0.0, 0.0, 1.62926933919366E9, 2021-08-18 00:48:59.193
32.0, -1914248.25, 4500000.0, -2928606.1875, 4500000.0, 4500000.0, -1933234.5, 4500000.0, -2552921.4375, 4500000.0, 4500000.0, 4500000.0, 4500000.0, 4500000.0, 4500000.0, 4500000.0, 4500000.0, 0.012000000104308128, 0.9610000550746918, 0.32500001788139343, 192.0, 0.0, 0.0, 0.0, 0.0, 0.0, 0.0, 0.0, 0.0, 0.0, 1.6292693391936667E9, 2021-08-18 00:48:59.193
34.0, -1912974.75, 4500000.0, -2927775.1875, 4500000.0, 4500000.0, -1932062.4375, 4500000.0, -2552112.9375, 4500000.0, 4500000.0, 4500000.0, 4500000.0, 4500000.0, 4500000.0, 4500000.0, 4500000.0, 0.009000000078231096, 0.9565000385046005, 0.3225000202655792, 192.0, 0.0, 24.0, 14.5, 96.0, 5.0, 0.0, 0.0, 0.0, 0.0, 1.6292693391936731E9, 2021-08-18 00:48:59.193
36.0, -1914060.0, 4500000.0, -2928709.6875, 4500000.0, 4500000.0, -1933602.5625, 4500000.0, -2553069.9375, 4500000.0, 4500000.0, 4500000.0, 4500000.0, 4500000.0, 4500000.0, 4500000.0, 4500000.0, 0.009000000078231096, 0.9565000385046005, 0.3225000202655792, 192.0, 0.0, 0.0, 0.0, 0.0, 0.0, 0.0, 0.0, 0.0, 0.0, 1.62926933919368E9, 2021-08-18 00:48:59.193
38.0, -1913037.0, 4500000.0, -2927976.375, 4500000.0, 4500000.0, -1932992.0625, 4500000.0, -2552397.75, 4500000.0, 4500000.0, 4500000.0, 4500000.0, 4500000.0, 4500000.0, 4500000.0, 4500000.0, 0.009000000078231096, 0.9565000385046005, 0.3225000202655792, 192.0, 0.0, 0.0, 0.0, 0.0, 0.0, 0.0, 0.0, 0.0, 0.0, 1.6292693391936865E9, 2021-08-18 00:48:59.193
40.0, -1913967.5625, 4500000.0, -2928643.125, 4500000.0, 4500000.0, -1933817.0625, 4500000.0, -2552945.4375, 4500000.0, 4500000.0, 4500000.0, 4500000.0, 4500000.0, 4500000.0, 4500000.0, 4500000.0, 0.009000000078231096, 0.9565000385046005, 0.3225000202655792, 192.0, 0.0, 0.0, 0.0, 0.0, 0.0, 0.0, 0.0, 0.0, 0.0, 1.6292693391936932E9, 2021-08-18 00:48:59.193
42.0, -1913143.6875, 4500000.0, -2927885.0625, 4500000.0, 4500000.0, -1933397.0625, 4500000.0, -2552626.875, 4500000.0, 4500000.0, 4500000.0, 4500000.0, 4500000.0, 4500000.0, 4500000.0, 4500000.0, 0.009000000078231096, 0.9565000385046005, 0.3225000202655792, 192.0, 0.0, 0.0, 0.0, 0.0, 0.0, 0.0, 0.0, 0.0, 0.0, 1.6292693391937E9, 2021-08-18 00:48:59.193
44.0, -1913808.375, 4500000.0, -2928442.5, 4500000.0, 4500000.0, -1933790.25, 4500000.0, -2552737.3125, 4500000.0, 4500000.0, 4500000.0, 4500000.0, 4500000.0, 4500000.0, 4500000.0, 4500000.0, 0.001500000013038516, 0.9562500342726707, 0.3202500194311142, 192.0, 127.5, 104.0, 14.5, 112.0, 4.5, 120.0, 0.0, 0.0, 0.0, 1.6292693391937068E9, 2021-08-18 00:48:59.193
46.0, -1913387.25, 4500000.0, -2928070.125, 4500000.0, 4500000.0, -1934339.0625, 4500000.0, -2552373.75, 4500000.0, 4500000.0, 4500000.0, 4500000.0, 4500000.0, 4500000.0, 4500000.0, 4500000.0, 0.001500000013038516, 0.9562500342726707, 0.3202500194311142, 192.0, 0.0, 0.0, 0.0, 0.0, 0.0, 0.0, 0.0, 0.0, 0.0, 1.6292693391937137E9, 2021-08-18 00:48:59.193
48.0, -1913576.625, 4500000.0, -2928036.375, 4500000.0, 4500000.0, -1933751.625, 4500000.0, -2552565.1875, 4500000.0, 4500000.0, 4500000.0, 4500000.0, 4500000.0, 4500000.0, 4500000.0, 4500000.0, 0.001500000013038516, 0.9562500342726707, 0.3202500194311142, 192.0, 0.0, 0.0, 0.0, 0.0, 0.0, 0.0, 0.0, 0.0, 0.0, 1.62926933919372E9, 2021-08-18 00:48:59.193
50.0, -1913207.0625, 4500000.0, -2927461.875, 4500000.0, 4500000.0, -1934533.6875, 4500000.0, -2552353.875, 4500000.0, 4500000.0, 4500000.0, 4500000.0, 4500000.0, 4500000.0, 4500000.0, 4500000.0, 0.001500000013038516, 0.9562500342726707, 0.3202500194311142, 192.0, 0.0, 0.0, 0.0, 0.0, 0.0, 0.0, 0.0, 0.0, 0.0, 1.6292693391937273E9, 2021-08-18 00:48:59.193
52.0, -1913173.125, 4500000.0, -2927329.3125, 4500000.0, 4500000.0, -1933550.4375, 4500000.0, -2552113.5, 4500000.0, 4500000.0, 4500000.0, 4500000.0, 4500000.0, 4500000.0, 4500000.0, 4500000.0, 0.001500000013038516, 0.9562500342726707, 0.3202500194311142, 192.0, 0.0, 0.0, 0.0, 0.0, 0.0, 0.0, 0.0, 0.0, 0.0, 1.6292693391937363E9, 2021-08-18 00:48:59.193
54.0, -1914295.5, 4500000.0, -2927884.125, 4500000.0, 4500000.0, -1935486.5625, 4500000.0, -2553240.0, 4500000.0, 4500000.0, 4500000.0, 4500000.0, 4500000.0, 4500000.0, 4500000.0, 4500000.0, -0.00425000034738332, 0.9591250531375408, 0.3201250210404396, 192.0, 127.5, 88.0, 15.0, 8.0, 5.0, 0.0, 0.0, 0.0, 0.0, 1.6292693391937428E9, 2021-08-18 00:48:59.193
56.0, -1913503.6875, 4500000.0, -2927465.0625, 4500000.0, 4500000.0, -1933756.5, 4500000.0, -2552172.0, 4500000.0, 4500000.0, 4500000.0, 4500000.0, 4500000.0, 4500000.0, 4500000.0, 4500000.0, -0.00425000034738332, 0.9591250531375408, 0.3201250210404396, 192.0, 0.0, 0.0, 0.0, 0.0, 0.0, 0.0, 0.0, 0.0, 0.0, 1.6292693391937497E9, 2021-08-18 00:48:59.193
58.0, -1914373.125, 4500000.0, -2927994.0, 4500000.0, 4500000.0, -1935670.5, 4500000.0, -2552966.4375, 4500000.0, 4500000.0, 4500000.0, 4500000.0, 4500000.0, 4500000.0, 4500000.0, 4500000.0, -0.00425000034738332, 0.9591250531375408, 0.3201250210404396, 192.0, 0.0, 0.0, 0.0, 0.0, 0.0, 0.0, 0.0, 0.0, 0.0, 1.6292693391937563E9, 2021-08-18 00:48:59.193
60.0, -1913735.4375, 4500000.0, -2928009.0, 4500000.0, 4500000.0, -1934147.4375, 4500000.0, -2552511.5625, 4500000.0, 4500000.0, 4500000.0, 4500000.0, 4500000.0, 4500000.0, 4500000.0, 4500000.0, -0.00425000034738332, 0.9591250531375408, 0.3201250210404396, 192.0, 0.0, 0.0, 0.0, 0.0, 0.0, 0.0, 0.0, 0.0, 0.0, 1.6292693391937647E9, 2021-08-18 00:48:59.193
62.0, -1914775.5, 4500000.0, -2928682.3125, 4500000.0, 4500000.0, -1936097.4375, 4500000.0, -2553381.5625, 4500000.0, 4500000.0, 4500000.0, 4500000.0, 4500000.0, 4500000.0, 4500000.0, 4500000.0, -0.00425000034738332, 0.9591250531375408, 0.3201250210404396, 192.0, 0.0, 0.0, 0.0, 0.0, 0.0, 0.0, 0.0, 0.0, 0.0, 1.6292693391937716E9, 2021-08-18 00:48:59.193
64.0, -1913862.0, 4500000.0, -2928483.1875, 4500000.0, 4500000.0, -1934253.1875, 4500000.0, -2553067.875, 4500000.0, 4500000.0, 4500000.0, 4500000.0, 4500000.0, 4500000.0, 4500000.0, 4500000.0, -0.00425000034738332, 0.9591250531375408, 0.3201250210404396, 192.0, 0.0, 0.0, 14.5, 16.0, 4.5, 112.0, 0.0, 0.0, 0.0, 1.6292693391937785E9, 2021-08-18 00:48:59.193
66.0, -1915151.625, 4500000.0, -2929312.125, 4500000.0, 4500000.0, -1936500.9375, 4500000.0, -2553485.8125, 4500000.0, 4500000.0, 4500000.0, 4500000.0, 4500000.0, 4500000.0, 4500000.0, 4500000.0, -0.00425000034738332, 0.9591250531375408, 0.3201250210404396, 192.0, 0.0, 0.0, 0.0, 0.0, 0.0, 0.0, 0.0, 0.0, 0.0, 1.629269339193785E9, 2021-08-18 00:48:59.193
68.0, -1913719.875, 4500000.0, -2928705.9375, 4500000.0, 4500000.0, -1934103.5625, 4500000.0, -2552096.8125, 4500000.0, 4500000.0, 4500000.0, 4500000.0, 4500000.0, 4500000.0, 4500000.0, 4500000.0, -0.00425000034738332, 0.9591250531375408, 0.3201250210404396, 192.0, 0.0, 0.0, 0.0, 0.0, 0.0, 0.0, 0.0, 0.0, 0.0, 1.6292693391937916E9, 2021-08-18 00:48:59.193
70.0, -1915588.6875, 4500000.0, -2929913.4375, 4500000.0, 4500000.0, -1936438.125, 4500000.0, -2553941.625, 4500000.0, 4500000.0, 4500000.0, 4500000.0, 4500000.0, 4500000.0, 4500000.0, 4500000.0, -0.00425000034738332, 0.9591250531375408, 0.3201250210404396, 192.0, 0.0, 0.0, 0.0, 0.0, 0.0, 0.0, 0.0, 0.0, 0.0, 1.6292693391937983E9, 2021-08-18 00:48:59.193
72.0, -1914096.375, 4500000.0, -2928873.75, 4500000.0, 4500000.0, -1933984.5, 4500000.0, -2552170.3125, 4500000.0, 4500000.0, 4500000.0, 4500000.0, 4500000.0, 4500000.0, 4500000.0, 4500000.0, -0.00425000034738332, 0.9591250531375408, 0.3201250210404396, 192.0, 0.0, 0.0, 0.0, 0.0, 0.0, 0.0, 0.0, 0.0, 0.0, 1.6292693391938047E9, 2021-08-18 00:48:59.193
74.0, -1915390.3125, 4500000.0, -2929407.0, 4500000.0, 4500000.0, -1935601.875, 4500000.0, -2553473.4375, 4500000.0, 4500000.0, 4500000.0, 4500000.0, 4500000.0, 4500000.0, 4500000.0, 4500000.0, -0.004000000189989805, 0.9440000653266907, 0.31800001859664917, 192.0, 127.5, 112.0, 14.5, 64.0, 4.5, 120.0, 0.0, 0.0, 0.0, 1.6292693391938117E9, 2021-08-18 00:48:59.193
76.0, -1914156.5625, 4500000.0, -2928778.875, 4500000.0, 4500000.0, -1933790.25, 4500000.0, -2552795.8125, 4500000.0, 4500000.0, 4500000.0, 4500000.0, 4500000.0, 4500000.0, 4500000.0, 4500000.0, -0.004000000189989805, 0.9440000653266907, 0.31800001859664917, 192.0, 0.0, 0.0, 0.0, 0.0, 0.0, 0.0, 0.0, 0.0, 0.0, 1.629269339193818E9, 2021-08-18 00:48:59.193
78.0, -1916133.75, 4500000.0, -2930079.1875, 4500000.0, 4500000.0, -1935891.0, 4500000.0, -2554350.9375, 4500000.0, 4500000.0, 4500000.0, 4500000.0, 4500000.0, 4500000.0, 4500000.0, 4500000.0, -0.004000000189989805, 0.9440000653266907, 0.31800001859664917, 192.0, 0.0, 0.0, 0.0, 0.0, 0.0, 0.0, 0.0, 0.0, 0.0, 1.6292693391938248E9, 2021-08-18 00:48:59.193
80.0, -1914552.9375, 4500000.0, -2929023.375, 4500000.0, 4500000.0, -1934118.5625, 4500000.0, -2552841.375, 4500000.0, 4500000.0, 4500000.0, 4500000.0, 4500000.0, 4500000.0, 4500000.0, 4500000.0, -0.004000000189989805, 0.9440000653266907, 0.31800001859664917, 192.0, 0.0, 0.0, 0.0, 0.0, 0.0, 0.0, 0.0, 0.0, 0.0, 1.6292693391938312E9, 2021-08-18 00:48:59.193
82.0, -1915809.75, 4500000.0, -2929655.4375, 4500000.0, 4500000.0, -1935299.8125, 4500000.0, -2553558.1875, 4500000.0, 4500000.0, 4500000.0, 4500000.0, 4500000.0, 4500000.0, 4500000.0, 4500000.0, -0.004000000189989805, 0.9440000653266907, 0.31800001859664917, 192.0, 0.0, 0.0, 0.0, 0.0, 0.0, 0.0, 0.0, 0.0, 0.0, 1.629269339193838E9, 2021-08-18 00:48:59.193
84.0, -1914519.5625, 4500000.0, -2928791.625, 4500000.0, 4500000.0, -1934106.75, 4500000.0, -2552555.625, 4500000.0, 4500000.0, 4500000.0, 4500000.0, 4500000.0, 4500000.0, 4500000.0, 4500000.0, 0.014000000432133675, 0.9700000286102295, 0.3240000009536743, 192.0, 0.0, 56.0, 15.0, 40.0, 5.0, 16.0, 0.0, 0.0, 0.0, 1.6292693391938455E9, 2021-08-18 00:48:59.193
86.0, -1915773.9375, 4500000.0, -2929705.3125, 4500000.0, 4500000.0, -1935535.875, 4500000.0, -2553587.0625, 4500000.0, 4500000.0, 4500000.0, 4500000.0, 4500000.0, 4500000.0, 4500000.0, 4500000.0, 0.014000000432133675, 0.9700000286102295, 0.3240000009536743, 192.0, 0.0, 0.0, 0.0, 0.0, 0.0, 0.0, 0.0, 0.0, 0.0, 1.6292693391938543E9, 2021-08-18 00:48:59.193
88.0, -1915187.4375, 4500000.0, -2929157.625, 4500000.0, 4500000.0, -1935408.1875, 4500000.0, -2553758.8125, 4500000.0, 4500000.0, 4500000.0, 4500000.0, 4500000.0, 4500000.0, 4500000.0, 4500000.0, 0.014000000432133675, 0.9700000286102295, 0.3240000009536743, 192.0, 0.0, 0.0, 0.0, 0.0, 0.0, 0.0, 0.0, 0.0, 0.0, 1.6292693391938612E9, 2021-08-18 00:48:59.193
90.0, -1915229.4375, 4500000.0, -2929324.3125, 4500000.0, 4500000.0, -1935565.875, 4500000.0, -2552352.1875, 4500000.0, 4500000.0, 4500000.0, 4500000.0, 4500000.0, 4500000.0, 4500000.0, 4500000.0, 0.014000000432133675, 0.9700000286102295, 0.3240000009536743, 192.0, 0.0, 0.0, 0.0, 0.0, 0.0, 0.0, 0.0, 0.0, 0.0, 1.629269339193868E9, 2021-08-18 00:48:59.193
92.0, -1914881.8125, 4500000.0, -2928915.5625, 4500000.0, 4500000.0, -1935552.0, 4500000.0, -2552101.6875, 4500000.0, 4500000.0, 4500000.0, 4500000.0, 4500000.0, 4500000.0, 4500000.0, 4500000.0, 0.014000000432133675, 0.9700000286102295, 0.3240000009536743, 192.0, 0.0, 0.0, 0.0, 0.0, 0.0, 0.0, 0.0, 0.0, 0.0, 1.6292693391938748E9, 2021-08-18 00:48:59.193
94.0, -1915446.5625, 4500000.0, -2929126.5, 4500000.0, 4500000.0, -1935598.125, 4500000.0, -2552956.3125, 4500000.0, 4500000.0, 4500000.0, 4500000.0, 4500000.0, 4500000.0, 4500000.0, 4500000.0, 0.026000000536441803, 0.9740000367164612, 0.3360000252723694, 192.0, 0.0, 104.0, 15.0, 56.0, 5.0, 64.0, 0.0, 0.0, 0.0, 1.6292693391938815E9, 2021-08-18 00:48:59.193
96.0, -1915221.9375, 4500000.0, -2928697.3125, 4500000.0, 4500000.0, -1936123.6875, 4500000.0, -2552901.5625, 4500000.0, 4500000.0, 4500000.0, 4500000.0, 4500000.0, 4500000.0, 4500000.0, 4500000.0, 0.026000000536441803, 0.9740000367164612, 0.3360000252723694, 192.0, 0.0, 0.0, 0.0, 0.0, 0.0, 0.0, 0.0, 0.0, 0.0, 1.629269339193888E9, 2021-08-18 00:48:59.193
98.0, -1915193.4375, 4500000.0, -2928693.5625, 4500000.0, 4500000.0, -1935524.0625, 4500000.0, -2552866.6875, 4500000.0, 4500000.0, 4500000.0, 4500000.0, 4500000.0, 4500000.0, 4500000.0, 4500000.0, 0.026000000536441803, 0.9740000367164612, 0.3360000252723694, 192.0, 0.0, 0.0, 0.0, 0.0, 0.0, 0.0, 0.0, 0.0, 0.0, 1.6292693391938949E9, 2021-08-18 00:48:59.193
100.0, -1915940.0625, 4500000.0, -2929090.5, 4500000.0, 4500000.0, -1936950.375, 4500000.0, -2553485.25, 4500000.0, 4500000.0, 4500000.0, 4500000.0, 4500000.0, 4500000.0, 4500000.0, 4500000.0, 0.026000000536441803, 0.9740000367164612, 0.3360000252723694, 192.0, 0.0, 0.0, 0.0, 0.0, 0.0, 0.0, 0.0, 0.0, 0.0, 1.6292693391939013E9, 2021-08-18 00:48:59.193
102.0, -1915296.375, 4500000.0, -2928792.75, 4500000.0, 4500000.0, -1935741.375, 4500000.0, -2553017.4375, 4500000.0, 4500000.0, 4500000.0, 4500000.0, 4500000.0, 4500000.0, 4500000.0, 4500000.0, 0.026000000536441803, 0.9740000367164612, 0.3360000252723694, 192.0, 0.0, 0.0, 0.0, 0.0, 0.0, 0.0, 0.0, 0.0, 0.0, 1.629269339193908E9, 2021-08-18 00:48:59.193
104.0, -1915636.5, 4500000.0, -2928868.875, 4500000.0, 4500000.0, -1936956.375, 4500000.0, -2553230.4375, 4500000.0, 4500000.0, 4500000.0, 4500000.0, 4500000.0, 4500000.0, 4500000.0, 4500000.0, 0.018000001087784767, 0.9640000462532043, 0.33800002932548523, 192.0, 0.0, 72.0, 15.0, 16.0, 5.0, 72.0, 0.0, 0.0, 0.0, 1.6292693391939144E9, 2021-08-18 00:48:59.193
106.0, -1914993.9375, 4500000.0, -2928678.5625, 4500000.0, 4500000.0, -1935653.8125, 4500000.0, -2552826.9375, 4500000.0, 4500000.0, 4500000.0, 4500000.0, 4500000.0, 4500000.0, 4500000.0, 4500000.0, 0.018000001087784767, 0.9640000462532043, 0.33800002932548523, 192.0, 0.0, 0.0, 0.0, 0.0, 0.0, 0.0, 0.0, 0.0, 0.0, 1.6292693396742373E9, 2021-08-18 00:48:59.674
108.0, -1916369.25, 4500000.0, -2929586.25, 4500000.0, 4500000.0, -1937860.6875, 4500000.0, -2554006.125, 4500000.0, 4500000.0, 4500000.0, 4500000.0, 4500000.0, 4500000.0, 4500000.0, 4500000.0, 0.018000001087784767, 0.9640000462532043, 0.33800002932548523, 192.0, 0.0, 0.0, 0.0, 0.0, 0.0, 0.0, 0.0, 0.0, 0.0, 1.6292693396742456E9, 2021-08-18 00:48:59.674
110.0, -1915271.25, 4500000.0, -2928981.5625, 4500000.0, 4500000.0, -1936219.875, 4500000.0, -2552628.5625, 4500000.0, 4500000.0, 4500000.0, 4500000.0, 4500000.0, 4500000.0, 4500000.0, 4500000.0, 0.018000001087784767, 0.9640000462532043, 0.33800002932548523, 192.0, 0.0, 0.0, 0.0, 0.0, 0.0, 0.0, 0.0, 0.0, 0.0, 1.6292693396742525E9, 2021-08-18 00:48:59.674
112.0, -1916235.1875, 4500000.0, -2929392.5625, 4500000.0, 4500000.0, -1937988.375, 4500000.0, -2553582.375, 4500000.0, 4500000.0, 4500000.0, 4500000.0, 4500000.0, 4500000.0, 4500000.0, 4500000.0, 0.015000000596046448, 0.9580000340938568, 0.3360000252723694, 192.0, 0.0, 48.0, 14.5, 96.0, 5.0, 56.0, 0.0, 0.0, 0.0, 1.6292693396742592E9, 2021-08-18 00:48:59.674
114.0, -1915677.75, 4500000.0, -2929110.375, 4500000.0, 4500000.0, -1936384.5, 4500000.0, -2553355.875, 4500000.0, 4500000.0, 4500000.0, 4500000.0, 4500000.0, 4500000.0, 4500000.0, 4500000.0, 0.015000000596046448, 0.9580000340938568, 0.3360000252723694, 192.0, 0.0, 0.0, 0.0, 0.0, 0.0, 0.0, 0.0, 0.0, 0.0, 1.629269339674266E9, 2021-08-18 00:48:59.674
116.0, -1916609.625, 4500000.0, -2929288.5, 4500000.0, 4500000.0, -1937868.1875, 4500000.0, -2553352.6875, 4500000.0, 4500000.0, 4500000.0, 4500000.0, 4500000.0, 4500000.0, 4500000.0, 4500000.0, 0.015000000596046448, 0.9580000340938568, 0.3360000252723694, 192.0, 0.0, 0.0, 0.0, 0.0, 0.0, 0.0, 0.0, 0.0, 0.0, 1.6292693396742728E9, 2021-08-18 00:48:59.674
118.0, -1915188.0, 4500000.0, -2928260.625, 4500000.0, 4500000.0, -1935859.875, 4500000.0, -2552378.0625, 4500000.0, 4500000.0, 4500000.0, 4500000.0, 4500000.0, 4500000.0, 4500000.0, 4500000.0, 0.015000000596046448, 0.9580000340938568, 0.3360000252723694, 192.0, 0.0, 0.0, 0.0, 0.0, 0.0, 0.0, 0.0, 0.0, 0.0, 1.62926933967428E9, 2021-08-18 00:48:59.674
120.0, -1916377.3125, 4500000.0, -2928989.0625, 4500000.0, 4500000.0, -1937844.1875, 4500000.0, -2553843.0, 4500000.0, 4500000.0, 4500000.0, 4500000.0, 4500000.0, 4500000.0, 4500000.0, 4500000.0, 0.015000000596046448, 0.9580000340938568, 0.3360000252723694, 192.0, 0.0, 0.0, 0.0, 0.0, 0.0, 0.0, 0.0, 0.0, 0.0, 1.629269339674296E9, 2021-08-18 00:48:59.674
122.0, -1914993.9375, 4500000.0, -2928084.75, 4500000.0, 4500000.0, -1936260.5625, 4500000.0, -2553090.375, 4500000.0, 4500000.0, 4500000.0, 4500000.0, 4500000.0, 4500000.0, 4500000.0, 4500000.0, 0.004500000271946192, 0.9570000320672989, 0.33400002121925354, 192.0, 127.5, 104.0, 14.5, 112.0, 5.0, 48.0, 0.0, 0.0, 0.0, 1.6292693396743045E9, 2021-08-18 00:48:59.674
124.0, -1915880.625, 4500000.0, -2928270.375, 4500000.0, 4500000.0, -1937488.5, 4500000.0, -2553789.375, 4500000.0, 4500000.0, 4500000.0, 4500000.0, 4500000.0, 4500000.0, 4500000.0, 4500000.0, 0.004500000271946192, 0.9570000320672989, 0.33400002121925354, 192.0, 0.0, 0.0, 0.0, 0.0, 0.0, 0.0, 0.0, 0.0, 0.0, 1.6292693396743107E9, 2021-08-18 00:48:59.674
126.0, -1914541.125, 4500000.0, -2927671.125, 4500000.0, 4500000.0, -1935998.8125, 4500000.0, -2552749.6875, 4500000.0, 4500000.0, 4500000.0, 4500000.0, 4500000.0, 4500000.0, 4500000.0, 4500000.0, 0.004500000271946192, 0.9570000320672989, 0.33400002121925354, 192.0, 0.0, 0.0, 0.0, 0.0, 0.0, 0.0, 0.0, 0.0, 0.0, 1.6292693396743176E9, 2021-08-18 00:48:59.674
128.0, -1915669.6875, 4500000.0, -2928620.0625, 4500000.0, 4500000.0, -1937666.625, 4500000.0, -2553808.125, 4500000.0, 4500000.0, 4500000.0, 4500000.0, 4500000.0, 4500000.0, 4500000.0, 4500000.0, 0.004500000271946192, 0.9570000320672989, 0.33400002121925354, 192.0, 0.0, 0.0, 0.0, 0.0, 0.0, 0.0, 0.0, 0.0, 0.0, 1.6292693396743245E9, 2021-08-18 00:48:59.674
130.0, -1914480.0, 4500000.0, -2927763.9375, 4500000.0, 4500000.0, -1936160.25, 4500000.0, -2552786.8125, 4500000.0, 4500000.0, 4500000.0, 4500000.0, 4500000.0, 4500000.0, 4500000.0, 4500000.0, 0.004500000271946192, 0.9570000320672989, 0.33400002121925354, 192.0, 0.0, 0.0, 0.0, 0.0, 0.0, 0.0, 0.0, 0.0, 0.0, 1.629269339674331E9, 2021-08-18 00:48:59.674
132.0, -1915585.5, 4500000.0, -2928645.1875, 4500000.0, 4500000.0, -1937441.8125, 4500000.0, -2553705.1875, 4500000.0, 4500000.0, 4500000.0, 4500000.0, 4500000.0, 4500000.0, 4500000.0, 4500000.0, -7.499998901039362E-4, 0.9505000486969948, 0.3320000171661377, 192.0, 127.5, 104.0, 14.5, 64.0, 5.0, 40.0, 0.0, 0.0, 0.0, 1.6292693396743376E9, 2021-08-18 00:48:59.674
134.0, -1914857.0625, 4500000.0, -2928197.25, 4500000.0, 4500000.0, -1936603.3125, 4500000.0, -2553169.6875, 4500000.0, 4500000.0, 4500000.0, 4500000.0, 4500000.0, 4500000.0, 4500000.0, 4500000.0, -7.499998901039362E-4, 0.9505000486969948, 0.3320000171661377, 192.0, 0.0, 0.0, 0.0, 0.0, 0.0, 0.0, 0.0, 0.0, 0.0, 1.6292693396743443E9, 2021-08-18 00:48:59.674
136.0, -1915978.6875, 4500000.0, -2928754.125, 4500000.0, 4500000.0, -1937231.4375, 4500000.0, -2553664.3125, 4500000.0, 4500000.0, 4500000.0, 4500000.0, 4500000.0, 4500000.0, 4500000.0, 4500000.0, -7.499998901039362E-4, 0.9505000486969948, 0.3320000171661377, 192.0, 0.0, 0.0, 0.0, 0.0, 0.0, 0.0, 0.0, 0.0, 0.0, 1.629269339674351E9, 2021-08-18 00:48:59.674
138.0, -1914932.25, 4500000.0, -2927934.9375, 4500000.0, 4500000.0, -1936273.5, 4500000.0, -2552827.5, 4500000.0, 4500000.0, 4500000.0, 4500000.0, 4500000.0, 4500000.0, 4500000.0, 4500000.0, -7.499998901039362E-4, 0.9505000486969948, 0.3320000171661377, 192.0, 0.0, 0.0, 0.0, 0.0, 0.0, 0.0, 0.0, 0.0, 0.0, 1.6292693396743577E9, 2021-08-18 00:48:59.674
140.0, -1915781.4375, 4500000.0, -2928639.375, 4500000.0, 4500000.0, -1936645.125, 4500000.0, -2553501.375, 4500000.0, 4500000.0, 4500000.0, 4500000.0, 4500000.0, 4500000.0, 4500000.0, 4500000.0, -7.499998901039362E-4, 0.9505000486969948, 0.3320000171661377, 192.0, 0.0, 0.0, 0.0, 0.0, 0.0, 0.0, 0.0, 0.0, 0.0, 1.6292693396743643E9, 2021-08-18 00:48:59.674
142.0, -1915501.875, 4500000.0, -2928391.5, 4500000.0, 4500000.0, -1936521.75, 4500000.0, -2552587.125, 4500000.0, 4500000.0, 4500000.0, 4500000.0, 4500000.0, 4500000.0, 4500000.0, 4500000.0, 0.0016250001499429345, 0.943250048905611, 0.328000009059906, 192.0, 0.0, 16.0, 14.5, 32.0, 5.0, 16.0, 0.0, 0.0, 0.0, 1.6292693396743712E9, 2021-08-18 00:48:59.674
144.0, -1916165.4375, 4500000.0, -2928840.5625, 4500000.0, 4500000.0, -1936604.4375, 4500000.0, -2553333.9375, 4500000.0, 4500000.0, 4500000.0, 4500000.0, 4500000.0, 4500000.0, 4500000.0, 4500000.0, 0.0016250001499429345, 0.943250048905611, 0.328000009059906, 192.0, 0.0, 0.0, 0.0, 0.0, 0.0, 0.0, 0.0, 0.0, 0.0, 1.6292693396743784E9, 2021-08-18 00:48:59.674
146.0, -1916044.125, 4500000.0, -2928531.0, 4500000.0, 4500000.0, -1936777.125, 4500000.0, -2552933.8125, 4500000.0, 4500000.0, 4500000.0, 4500000.0, 4500000.0, 4500000.0, 4500000.0, 4500000.0, 0.0016250001499429345, 0.943250048905611, 0.328000009059906, 192.0, 0.0, 0.0, 0.0, 0.0, 0.0, 0.0, 0.0, 0.0, 0.0, 1.6292693396743858E9, 2021-08-18 00:48:59.674
148.0, -1916359.125, 4500000.0, -2928587.25, 4500000.0, 4500000.0, -1936359.75, 4500000.0, -2553668.625, 4500000.0, 4500000.0, 4500000.0, 4500000.0, 4500000.0, 4500000.0, 4500000.0, 4500000.0, 0.0016250001499429345, 0.943250048905611, 0.328000009059906, 192.0, 0.0, 0.0, 0.0, 0.0, 0.0, 0.0, 0.0, 0.0, 0.0, 1.6292693396743927E9, 2021-08-18 00:48:59.674
150.0, -1916297.4375, 4500000.0, -2928284.8125, 4500000.0, 4500000.0, -1936782.5625, 4500000.0, -2553427.3125, 4500000.0, 4500000.0, 4500000.0, 4500000.0, 4500000.0, 4500000.0, 4500000.0, 4500000.0, 0.0016250001499429345, 0.943250048905611, 0.328000009059906, 192.0, 0.0, 0.0, 0.0, 0.0, 0.0, 0.0, 0.0, 0.0, 0.0, 1.6292693396743996E9, 2021-08-18 00:48:59.674
152.0, -1915978.3125, 4500000.0, -2928061.6875, 4500000.0, 4500000.0, -1935797.0625, 4500000.0, -2553281.8125, 4500000.0, 4500000.0, 4500000.0, 4500000.0, 4500000.0, 4500000.0, 4500000.0, 4500000.0, 0.0016250001499429345, 0.943250048905611, 0.328000009059906, 192.0, 0.0, 0.0, 14.5, 120.0, 4.5, 104.0, 0.0, 0.0, 0.0, 1.6292693396744063E9, 2021-08-18 00:48:59.674
154.0, -1916553.75, 4500000.0, -2928107.25, 4500000.0, 4500000.0, -1936637.625, 4500000.0, -2553595.6875, 4500000.0, 4500000.0, 4500000.0, 4500000.0, 4500000.0, 4500000.0, 4500000.0, 4500000.0, 0.0016250001499429345, 0.943250048905611, 0.328000009059906, 192.0, 0.0, 0.0, 0.0, 0.0, 0.0, 0.0, 0.0, 0.0, 0.0, 1.629269339674415E9, 2021-08-18 00:48:59.674
156.0, -1915471.3125, 4500000.0, -2927446.875, 4500000.0, 4500000.0, -1935262.3125, 4500000.0, -2553130.6875, 4500000.0, 4500000.0, 4500000.0, 4500000.0, 4500000.0, 4500000.0, 4500000.0, 4500000.0, 0.0016250001499429345, 0.943250048905611, 0.328000009059906, 192.0, 0.0, 0.0, 0.0, 0.0, 0.0, 0.0, 0.0, 0.0, 0.0, 1.629269339674422E9, 2021-08-18 00:48:59.674
158.0, -1916211.5625, 4500000.0, -2927772.9375, 4500000.0, 4500000.0, -1936764.75, 4500000.0, -2553427.3125, 4500000.0, 4500000.0, 4500000.0, 4500000.0, 4500000.0, 4500000.0, 4500000.0, 4500000.0, 0.0016250001499429345, 0.943250048905611, 0.328000009059906, 192.0, 0.0, 0.0, 0.0, 0.0, 0.0, 0.0, 0.0, 0.0, 0.0, 1.6292693396744285E9, 2021-08-18 00:48:59.674
160.0, -1914984.1875, 4500000.0, -2927007.5625, 4500000.0, 4500000.0, -1935309.375, 4500000.0, -2552605.875, 4500000.0, 4500000.0, 4500000.0, 4500000.0, 4500000.0, 4500000.0, 4500000.0, 4500000.0, 0.0016250001499429345, 0.943250048905611, 0.328000009059906, 192.0, 0.0, 0.0, 0.0, 0.0, 0.0, 0.0, 0.0, 0.0, 0.0, 1.6292693396744351E9, 2021-08-18 00:48:59.674
162.0, -1915612.3125, 4500000.0, -2927431.3125, 4500000.0, 4500000.0, -1936746.0, 4500000.0, -2552845.125, 4500000.0, 4500000.0, 4500000.0, 4500000.0, 4500000.0, 4500000.0, 4500000.0, 4500000.0, -0.010000000707805157, 0.9700000286102295, 0.328000009059906, 192.0, 127.5, 88.0, 15.0, 40.0, 5.0, 32.0, 0.0, 0.0, 0.0, 1.6292693396744423E9, 2021-08-18 00:48:59.674
164.0, -1914800.8125, 4500000.0, -2926815.9375, 4500000.0, 4500000.0, -1935468.1875, 4500000.0, -2552305.5, 4500000.0, 4500000.0, 4500000.0, 4500000.0, 4500000.0, 4500000.0, 4500000.0, 4500000.0, -0.010000000707805157, 0.9700000286102295, 0.328000009059906, 192.0, 0.0, 0.0, 0.0, 0.0, 0.0, 0.0, 0.0, 0.0, 0.0, 1.6292693396744492E9, 2021-08-18 00:48:59.674
166.0, -1915855.3125, 4500000.0, -2927382.5625, 4500000.0, 4500000.0, -1936976.625, 4500000.0, -2552944.5, 4500000.0, 4500000.0, 4500000.0, 4500000.0, 4500000.0, 4500000.0, 4500000.0, 4500000.0, -0.010000000707805157, 0.9700000286102295, 0.328000009059906, 192.0, 0.0, 0.0, 0.0, 0.0, 0.0, 0.0, 0.0, 0.0, 0.0, 1.629269339674456E9, 2021-08-18 00:48:59.674
168.0, -1914791.0625, 4500000.0, -2926679.8125, 4500000.0, 4500000.0, -1935614.625, 4500000.0, -2552333.4375, 4500000.0, 4500000.0, 4500000.0, 4500000.0, 4500000.0, 4500000.0, 4500000.0, 4500000.0, -0.010000000707805157, 0.9700000286102295, 0.328000009059906, 192.0, 0.0, 0.0, 0.0, 0.0, 0.0, 0.0, 0.0, 0.0, 0.0, 1.6292693396744628E9, 2021-08-18 00:48:59.674
170.0, -1916057.625, 4500000.0, -2927293.5, 4500000.0, 4500000.0, -1937270.0625, 4500000.0, -2553269.625, 4500000.0, 4500000.0, 4500000.0, 4500000.0, 4500000.0, 4500000.0, 4500000.0, 4500000.0, -0.010000000707805157, 0.9700000286102295, 0.328000009059906, 192.0, 0.0, 0.0, 0.0, 0.0, 0.0, 0.0, 0.0, 0.0, 0.0, 1.62926933967447E9, 2021-08-18 00:48:59.674
172.0, -1914455.25, 4500000.0, -2926340.625, 4500000.0, 4500000.0, -1935931.125, 4500000.0, -2552279.25, 4500000.0, 4500000.0, 4500000.0, 4500000.0, 4500000.0, 4500000.0, 4500000.0, 4500000.0, -0.020000001415610313, 0.9620000720024109, 0.320000022649765, 192.0, 127.5, 48.0, 15.0, 8.0, 5.0, 0.0, 0.0, 0.0, 0.0, 1.6292693396744788E9, 2021-08-18 00:48:59.674
174.0, -1915593.5625, 4500000.0, -2926908.75, 4500000.0, 4500000.0, -1937187.0, 4500000.0, -2553022.3125, 4500000.0, 4500000.0, 4500000.0, 4500000.0, 4500000.0, 4500000.0, 4500000.0, 4500000.0, -0.020000001415610313, 0.9620000720024109, 0.320000022649765, 192.0, 0.0, 0.0, 0.0, 0.0, 0.0, 0.0, 0.0, 0.0, 0.0, 1.6292693396744883E9, 2021-08-18 00:48:59.674
176.0, -1914729.9375, 4500000.0, -2926490.4375, 4500000.0, 4500000.0, -1936119.9375, 4500000.0, -2552628.0, 4500000.0, 4500000.0, 4500000.0, 4500000.0, 4500000.0, 4500000.0, 4500000.0, 4500000.0, -0.020000001415610313, 0.9620000720024109, 0.320000022649765, 192.0, 0.0, 0.0, 0.0, 0.0, 0.0, 0.0, 0.0, 0.0, 0.0, 1.629269339674496E9, 2021-08-18 00:48:59.674
178.0, -1915876.875, 4500000.0, -2927184.0, 4500000.0, 4500000.0, -1937261.625, 4500000.0, -2553093.5625, 4500000.0, 4500000.0, 4500000.0, 4500000.0, 4500000.0, 4500000.0, 4500000.0, 4500000.0, -0.020000001415610313, 0.9620000720024109, 0.320000022649765, 192.0, 0.0, 0.0, 0.0, 0.0, 0.0, 0.0, 0.0, 0.0, 0.0, 1.629269339674503E9, 2021-08-18 00:48:59.674
180.0, -1915067.4375, 4500000.0, -2926722.5625, 4500000.0, 4500000.0, -1936348.5, 4500000.0, -2552620.5, 4500000.0, 4500000.0, 4500000.0, 4500000.0, 4500000.0, 4500000.0, 4500000.0, 4500000.0, -0.020000001415610313, 0.9620000720024109, 0.320000022649765, 192.0, 0.0, 0.0, 0.0, 0.0, 0.0, 0.0, 0.0, 0.0, 0.0, 1.6292693396745107E9, 2021-08-18 00:48:59.674
182.0, -1915881.1875, 4500000.0, -2927222.0625, 4500000.0, 4500000.0, -1937100.5625, 4500000.0, -2553210.0, 4500000.0, 4500000.0, 4500000.0, 4500000.0, 4500000.0, 4500000.0, 4500000.0, 4500000.0, -0.024000000208616257, 0.9500000476837158, 0.3140000104904175, 192.0, 127.5, 32.0, 14.5, 88.0, 4.5, 104.0, 0.0, 0.0, 0.0, 1.6292693396745188E9, 2021-08-18 00:48:59.674
184.0, -1914761.625, 4500000.0, -2926356.1875, 4500000.0, 4500000.0, -1936095.375, 4500000.0, -2552267.4375, 4500000.0, 4500000.0, 4500000.0, 4500000.0, 4500000.0, 4500000.0, 4500000.0, 4500000.0, -0.024000000208616257, 0.9500000476837158, 0.3140000104904175, 192.0, 0.0, 0.0, 0.0, 0.0, 0.0, 0.0, 0.0, 0.0, 0.0, 1.6292693396745262E9, 2021-08-18 00:48:59.674
186.0, -1915997.0625, 4500000.0, -2927085.75, 4500000.0, 4500000.0, -1936979.4375, 4500000.0, -2553520.6875, 4500000.0, 4500000.0, 4500000.0, 4500000.0, 4500000.0, 4500000.0, 4500000.0, 4500000.0, -0.024000000208616257, 0.9500000476837158, 0.3140000104904175, 192.0, 0.0, 0.0, 0.0, 0.0, 0.0, 0.0, 0.0, 0.0, 0.0, 1.6292693396745331E9, 2021-08-18 00:48:59.674
188.0, -1915043.8125, 4500000.0, -2926394.8125, 4500000.0, 4500000.0, -1936379.0625, 4500000.0, -2552405.8125, 4500000.0, 4500000.0, 4500000.0, 4500000.0, 4500000.0, 4500000.0, 4500000.0, 4500000.0, -0.024000000208616257, 0.9500000476837158, 0.3140000104904175, 192.0, 0.0, 0.0, 0.0, 0.0, 0.0, 0.0, 0.0, 0.0, 0.0, 1.629269339674543E9, 2021-08-18 00:48:59.674
190.0, -1915920.375, 4500000.0, -2926871.25, 4500000.0, 4500000.0, -1936835.625, 4500000.0, -2553271.125, 4500000.0, 4500000.0, 4500000.0, 4500000.0, 4500000.0, 4500000.0, 4500000.0, 4500000.0, -0.024000000208616257, 0.9500000476837158, 0.3140000104904175, 192.0, 0.0, 0.0, 0.0, 0.0, 0.0, 0.0, 0.0, 0.0, 0.0, 1.6292693396745496E9, 2021-08-18 00:48:59.674
192.0, -1915814.625, 4500000.0, -2926683.0, 4500000.0, 4500000.0, -1936907.4375, 4500000.0, -2553094.125, 4500000.0, 4500000.0, 4500000.0, 4500000.0, 4500000.0, 4500000.0, 4500000.0, 4500000.0, -0.030000001192092896, 0.9580000638961792, 0.31200000643730164, 192.0, 127.5, 8.0, 14.5, 120.0, 4.5, 96.0, 0.0, 0.0, 0.0, 1.6292693396745565E9, 2021-08-18 00:48:59.674
194.0, -1915404.1875, 4500000.0, -2926538.625, 4500000.0, 4500000.0, -1936491.1875, 4500000.0, -2553148.875, 4500000.0, 4500000.0, 4500000.0, 4500000.0, 4500000.0, 4500000.0, 4500000.0, 4500000.0, -0.030000001192092896, 0.9580000638961792, 0.31200000643730164, 192.0, 0.0, 0.0, 0.0, 0.0, 0.0, 0.0, 0.0, 0.0, 0.0, 1.6292693396745634E9, 2021-08-18 00:48:59.674
196.0, -1915423.5, 4500000.0, -2926385.8125, 4500000.0, 4500000.0, -1936694.0625, 4500000.0, -2552630.625, 4500000.0, 4500000.0, 4500000.0, 4500000.0, 4500000.0, 4500000.0, 4500000.0, 4500000.0, -0.030000001192092896, 0.9580000638961792, 0.31200000643730164, 192.0, 0.0, 0.0, 0.0, 0.0, 0.0, 0.0, 0.0, 0.0, 0.0, 1.62926933967457E9, 2021-08-18 00:48:59.674
198.0, -1915415.4375, 4500000.0, -2926399.6875, 4500000.0, 4500000.0, -1936261.125, 4500000.0, -2553039.9375, 4500000.0, 4500000.0, 4500000.0, 4500000.0, 4500000.0, 4500000.0, 4500000.0, 4500000.0, -0.030000001192092896, 0.9580000638961792, 0.31200000643730164, 192.0, 0.0, 0.0, 0.0, 0.0, 0.0, 0.0, 0.0, 0.0, 0.0, 1.6292693396745768E9, 2021-08-18 00:48:59.674
200.0, -1915063.125, 4500000.0, -2925914.25, 4500000.0, 4500000.0, -1936607.625, 4500000.0, -2552581.875, 4500000.0, 4500000.0, 4500000.0, 4500000.0, 4500000.0, 4500000.0, 4500000.0, 4500000.0, -0.030000001192092896, 0.9580000638961792, 0.31200000643730164, 192.0, 0.0, 0.0, 0.0, 0.0, 0.0, 0.0, 0.0, 0.0, 0.0, 1.6292693396745837E9, 2021-08-18 00:48:59.674
202.0, -1914719.8125, 4500000.0, -2925792.375, 4500000.0, 4500000.0, -1936030.875, 4500000.0, -2552195.0625, 4500000.0, 4500000.0, 4500000.0, 4500000.0, 4500000.0, 4500000.0, 4500000.0, 4500000.0, -0.046000003814697266, 0.9600000381469727, 0.30800002813339233, 192.0, 127.0, 72.0, 15.0, 0.0, 4.5, 80.0, 0.0, 0.0, 0.0, 1.62926933967459E9, 2021-08-18 00:48:59.674
204.0, -1915487.4375, 4500000.0, -2926296.1875, 4500000.0, 4500000.0, -1937381.25, 4500000.0, -2552671.5, 4500000.0, 4500000.0, 4500000.0, 4500000.0, 4500000.0, 4500000.0, 4500000.0, 4500000.0, -0.046000003814697266, 0.9600000381469727, 0.30800002813339233, 192.0, 0.0, 0.0, 0.0, 0.0, 0.0, 0.0, 0.0, 0.0, 0.0, 1.6292693396745968E9, 2021-08-18 00:48:59.674
206.0, -1914780.375, 4500000.0, -2925608.4375, 4500000.0, 4500000.0, -1936266.0, 4500000.0, -2552295.9375, 4500000.0, 4500000.0, 4500000.0, 4500000.0, 4500000.0, 4500000.0, 4500000.0, 4500000.0, -0.046000003814697266, 0.9600000381469727, 0.30800002813339233, 192.0, 0.0, 0.0, 0.0, 0.0, 0.0, 0.0, 0.0, 0.0, 0.0, 1.6292693396746037E9, 2021-08-18 00:48:59.674
208.0, -1915213.875, 4500000.0, -2925877.6875, 4500000.0, 4500000.0, -1937453.0625, 4500000.0, -2552571.5625, 4500000.0, 4500000.0, 4500000.0, 4500000.0, 4500000.0, 4500000.0, 4500000.0, 4500000.0, -0.046000003814697266, 0.9600000381469727, 0.30800002813339233, 192.0, 0.0, 0.0, 0.0, 0.0, 0.0, 0.0, 0.0, 0.0, 0.0, 1.6292693396746116E9, 2021-08-18 00:48:59.674
210.0, -1914403.3125, 4500000.0, -2925019.5, 4500000.0, 4500000.0, -1935902.25, 4500000.0, -2551890.9375, 4500000.0, 4500000.0, 4500000.0, 4500000.0, 4500000.0, 4500000.0, 4500000.0, 4500000.0, -0.046000003814697266, 0.9600000381469727, 0.310000017285347, 192.0, 127.0, 72.0, 15.0, 0.0, 4.5, 96.0, 0.0, 0.0, 0.0, 1.6292693396746182E9, 2021-08-18 00:48:59.674
212.0, -1915859.0625, 4500000.0, -2925827.8125, 4500000.0, 4500000.0, -1937598.0, 4500000.0, -2552963.8125, 4500000.0, 4500000.0, 4500000.0, 4500000.0, 4500000.0, 4500000.0, 4500000.0, 4500000.0, -0.046000003814697266, 0.9600000381469727, 0.310000017285347, 192.0, 0.0, 0.0, 0.0, 0.0, 0.0, 0.0, 0.0, 0.0, 0.0, 1.6292693396746247E9, 2021-08-18 00:48:59.674
214.0, -1914740.625, 4500000.0, -2925198.0, 4500000.0, 4500000.0, -1936266.9375, 4500000.0, -2551961.625, 4500000.0, 4500000.0, 4500000.0, 4500000.0, 4500000.0, 4500000.0, 4500000.0, 4500000.0, -0.046000003814697266, 0.9600000381469727, 0.310000017285347, 192.0, 0.0, 0.0, 0.0, 0.0, 0.0, 0.0, 0.0, 0.0, 0.0, 1.6292693396746316E9, 2021-08-18 00:48:59.674
216.0, -1915859.0625, 4500000.0, -2925846.1875, 4500000.0, 4500000.0, -1937662.875, 4500000.0, -2552744.8125, 4500000.0, 4500000.0, 4500000.0, 4500000.0, 4500000.0, 4500000.0, 4500000.0, 4500000.0, -0.046000003814697266, 0.9600000381469727, 0.310000017285347, 192.0, 0.0, 0.0, 0.0, 0.0, 0.0, 0.0, 0.0, 0.0, 0.0, 1.6292693396746387E9, 2021-08-18 00:48:59.674
218.0, -1914901.6875, 4500000.0, -2925381.5625, 4500000.0, 4500000.0, -1936443.0, 4500000.0, -2551947.75, 4500000.0, 4500000.0, 4500000.0, 4500000.0, 4500000.0, 4500000.0, 4500000.0, 4500000.0, -0.046000003814697266, 0.9600000381469727, 0.310000017285347, 192.0, 0.0, 0.0, 0.0, 0.0, 0.0, 0.0, 0.0, 0.0, 0.0, 1.6292693396746464E9, 2021-08-18 00:48:59.674
220.0, -1916414.4375, 4500000.0, -2926430.25, 4500000.0, 4500000.0, -1937965.875, 4500000.0, -2552827.5, 4500000.0, 4500000.0, 4500000.0, 4500000.0, 4500000.0, 4500000.0, 4500000.0, 4500000.0, -0.0410000029951334, 0.9550000429153442, 0.3140000179409981, 192.0, 127.0, 112.0, 14.5, 88.0, 4.5, 120.0, 0.0, 0.0, 0.0, 1.6292693396746542E9, 2021-08-18 00:48:59.674
222.0, -1915093.6875, 4500000.0, -2925304.875, 4500000.0, 4500000.0, -1936223.0625, 4500000.0, -2552099.625, 4500000.0, 4500000.0, 4500000.0, 4500000.0, 4500000.0, 4500000.0, 4500000.0, 4500000.0, -0.0410000029951334, 0.9550000429153442, 0.3140000179409981, 192.0, 0.0, 0.0, 0.0, 0.0, 0.0, 0.0, 0.0, 0.0, 0.0, 1.6292693396746647E9, 2021-08-18 00:48:59.674
224.0, -1916283.9375, 4500000.0, -2925943.6875, 4500000.0, 4500000.0, -1937369.4375, 4500000.0, -2552565.75, 4500000.0, 4500000.0, 4500000.0, 4500000.0, 4500000.0, 4500000.0, 4500000.0, 4500000.0, -0.0410000029951334, 0.9550000429153442, 0.3140000179409981, 192.0, 0.0, 0.0, 0.0, 0.0, 0.0, 0.0, 0.0, 0.0, 0.0, 1.629269339674672E9, 2021-08-18 00:48:59.674
226.0, -1914978.375, 4500000.0, -2925248.0625, 4500000.0, 4500000.0, -1936184.4375, 4500000.0, -2552051.25, 4500000.0, 4500000.0, 4500000.0, 4500000.0, 4500000.0, 4500000.0, 4500000.0, 4500000.0, -0.0410000029951334, 0.9550000429153442, 0.3140000179409981, 192.0, 0.0, 0.0, 0.0, 0.0, 0.0, 0.0, 0.0, 0.0, 0.0, 1.6292693401558397E9, 2021-08-18 00:49:00.155
228.0, -1916327.4375, 4500000.0, -2925921.1875, 4500000.0, 4500000.0, -1937061.0, 4500000.0, -2552793.75, 4500000.0, 4500000.0, 4500000.0, 4500000.0, 4500000.0, 4500000.0, 4500000.0, 4500000.0, -0.0410000029951334, 0.9550000429153442, 0.3140000179409981, 192.0, 0.0, 0.0, 0.0, 0.0, 0.0, 0.0, 0.0, 0.0, 0.0, 1.6292693401559231E9, 2021-08-18 00:49:00.155
230.0, -1915518.0, 4500000.0, -2925253.3125, 4500000.0, 4500000.0, -1935872.625, 4500000.0, -2552027.0625, 4500000.0, 4500000.0, 4500000.0, 4500000.0, 4500000.0, 4500000.0, 4500000.0, 4500000.0, -0.03850000258535147, 0.9565000534057617, 0.31700002029538155, 192.0, 127.0, 112.0, 14.5, 120.0, 5.0, 0.0, 0.0, 0.0, 0.0, 1.6292693401560197E9, 2021-08-18 00:49:00.156
232.0, -1916940.5625, 4500000.0, -2926165.3125, 4500000.0, 4500000.0, -1936799.625, 4500000.0, -2553388.125, 4500000.0, 4500000.0, 4500000.0, 4500000.0, 4500000.0, 4500000.0, 4500000.0, 4500000.0, -0.03850000258535147, 0.9565000534057617, 0.31700002029538155, 192.0, 0.0, 0.0, 0.0, 0.0, 0.0, 0.0, 0.0, 0.0, 0.0, 1.6292693401560266E9, 2021-08-18 00:49:00.156
234.0, -1915890.1875, 4500000.0, -2925230.25, 4500000.0, 4500000.0, -1935597.5625, 4500000.0, -2552478.375, 4500000.0, 4500000.0, 4500000.0, 4500000.0, 4500000.0, 4500000.0, 4500000.0, 4500000.0, -0.03850000258535147, 0.9565000534057617, 0.31700002029538155, 192.0, 0.0, 0.0, 0.0, 0.0, 0.0, 0.0, 0.0, 0.0, 0.0, 1.6292693401560464E9, 2021-08-18 00:49:00.156
236.0, -1917103.125, 4500000.0, -2926243.125, 4500000.0, 4500000.0, -1936813.125, 4500000.0, -2553914.8125, 4500000.0, 4500000.0, 4500000.0, 4500000.0, 4500000.0, 4500000.0, 4500000.0, 4500000.0, -0.03850000258535147, 0.9565000534057617, 0.31700002029538155, 192.0, 0.0, 0.0, 0.0, 0.0, 0.0, 0.0, 0.0, 0.0, 0.0, 1.6292693401560533E9, 2021-08-18 00:49:00.156
238.0, -1916242.6875, 4500000.0, -2925899.8125, 4500000.0, 4500000.0, -1936320.5625, 4500000.0, -2552061.9375, 4500000.0, 4500000.0, 4500000.0, 4500000.0, 4500000.0, 4500000.0, 4500000.0, 4500000.0, -0.03850000258535147, 0.9565000534057617, 0.31700002029538155, 192.0, 0.0, 0.0, 0.0, 0.0, 0.0, 0.0, 0.0, 0.0, 0.0, 1.6292693401560595E9, 2021-08-18 00:49:00.156
240.0, -1917278.0625, 4500000.0, -2926658.25, 4500000.0, 4500000.0, -1936788.375, 4500000.0, -2552913.375, 4500000.0, 4500000.0, 4500000.0, 4500000.0, 4500000.0, 4500000.0, 4500000.0, 4500000.0, -0.025250001344829798, 0.952250063419342, 0.3185000214725733, 192.0, 127.5, 80.0, 14.5, 80.0, 5.0, 0.0, 0.0, 0.0, 0.0, 1.6292693401560664E9, 2021-08-18 00:49:00.156
242.0, -1916795.25, 4500000.0, -2926509.1875, 4500000.0, 4500000.0, -1936739.0625, 4500000.0, -2552904.75, 4500000.0, 4500000.0, 4500000.0, 4500000.0, 4500000.0, 4500000.0, 4500000.0, 4500000.0, -0.025250001344829798, 0.952250063419342, 0.3185000214725733, 192.0, 0.0, 0.0, 0.0, 0.0, 0.0, 0.0, 0.0, 0.0, 0.0, 1.629269340156073E9, 2021-08-18 00:49:00.156
244.0, -1917134.8125, 4500000.0, -2926806.9375, 4500000.0, 4500000.0, -1936626.375, 4500000.0, -2552972.8125, 4500000.0, 4500000.0, 4500000.0, 4500000.0, 4500000.0, 4500000.0, 4500000.0, 4500000.0, -0.025250001344829798, 0.952250063419342, 0.3185000214725733, 192.0, 0.0, 0.0, 0.0, 0.0, 0.0, 0.0, 0.0, 0.0, 0.0, 1.6292693401560795E9, 2021-08-18 00:49:00.156
246.0, -1916985.75, 4500000.0, -2926519.875, 4500000.0, 4500000.0, -1936809.9375, 4500000.0, -2552487.375, 4500000.0, 4500000.0, 4500000.0, 4500000.0, 4500000.0, 4500000.0, 4500000.0, 4500000.0, -0.025250001344829798, 0.952250063419342, 0.3185000214725733, 192.0, 0.0, 0.0, 0.0, 0.0, 0.0, 0.0, 0.0, 0.0, 0.0, 1.6292693401560864E9, 2021-08-18 00:49:00.156
248.0, -1916430.375, 4500000.0, -2925953.4375, 4500000.0, 4500000.0, -1935857.625, 4500000.0, -2552269.6875, 4500000.0, 4500000.0, 4500000.0, 4500000.0, 4500000.0, 4500000.0, 4500000.0, 4500000.0, -0.025250001344829798, 0.952250063419342, 0.3185000214725733, 192.0, 0.0, 0.0, 0.0, 0.0, 0.0, 0.0, 0.0, 0.0, 0.0, 1.629269340156093E9, 2021-08-18 00:49:00.156
250.0, -1917211.5, 4500000.0, -2926579.5, 4500000.0, 4500000.0, -1937286.1875, 4500000.0, -2552968.125, 4500000.0, 4500000.0, 4500000.0, 4500000.0, 4500000.0, 4500000.0, 4500000.0, 4500000.0, -0.006000000052154064, 0.9780000448226929, 0.33000001311302185, 192.0, 127.5, 104.0, 15.0, 72.0, 5.0, 40.0, 0.0, 0.0, 0.0, 1.6292693401561012E9, 2021-08-18 00:49:00.156
252.0, -1916755.5, 4500000.0, -2926244.0625, 4500000.0, 4500000.0, -1936544.25, 4500000.0, -2552929.5, 4500000.0, 4500000.0, 4500000.0, 4500000.0, 4500000.0, 4500000.0, 4500000.0, 4500000.0, -0.006000000052154064, 0.9780000448226929, 0.33000001311302185, 192.0, 0.0, 0.0, 0.0, 0.0, 0.0, 0.0, 0.0, 0.0, 0.0, 1.629269340156108E9, 2021-08-18 00:49:00.156
254.0, -1917397.6875, 4500000.0, -2926611.0, 4500000.0, 4500000.0, -1937617.6875, 4500000.0, -2553197.625, 4500000.0, 4500000.0, 4500000.0, 4500000.0, 4500000.0, 4500000.0, 4500000.0, 4500000.0, -0.006000000052154064, 0.9780000448226929, 0.33000001311302185, 192.0, 0.0, 0.0, 0.0, 0.0, 0.0, 0.0, 0.0, 0.0, 0.0, 1.6292693401561143E9, 2021-08-18 00:49:00.156
0.0, -1916716.875, 4500000.0, -2926444.6875, 4500000.0, 4500000.0, -1936492.875, 4500000.0, -2553073.6875, 4500000.0, 4500000.0, 4500000.0, 4500000.0, 4500000.0, 4500000.0, 4500000.0, 4500000.0, -0.006000000052154064, 0.9780000448226929, 0.33000001311302185, 192.0, 0.0, 0.0, 0.0, 0.0, 0.0, 0.0, 0.0, 0.0, 0.0, 1.629269340156129E9, 2021-08-18 00:49:00.156
2.0, -1917392.8125, 4500000.0, -2927024.625, 4500000.0, 4500000.0, -1937532.9375, 4500000.0, -2552501.4375, 4500000.0, 4500000.0, 4500000.0, 4500000.0, 4500000.0, 4500000.0, 4500000.0, 4500000.0, -0.006000000052154064, 0.9780000448226929, 0.33000001311302185, 192.0, 0.0, 0.0, 0.0, 0.0, 0.0, 0.0, 0.0, 0.0, 0.0, 1.6292693401561353E9, 2021-08-18 00:49:00.156
4.0, -1916960.4375, 4500000.0, -2926834.3125, 4500000.0, 4500000.0, -1936449.9375, 4500000.0, -2552363.4375, 4500000.0, 4500000.0, 4500000.0, 4500000.0, 4500000.0, 4500000.0, 4500000.0, 4500000.0, 0.024000000208616257, 0.9600000381469727, 0.33000001311302185, 192.0, 0.0, 96.0, 15.0, 0.0, 5.0, 40.0, 0.0, 0.0, 0.0, 1.629269340156142E9, 2021-08-18 00:49:00.156
6.0, -1917662.625, 4500000.0, -2927394.75, 4500000.0, 4500000.0, -1937752.875, 4500000.0, -2552907.375, 4500000.0, 4500000.0, 4500000.0, 4500000.0, 4500000.0, 4500000.0, 4500000.0, 4500000.0, 0.024000000208616257, 0.9600000381469727, 0.33000001311302185, 192.0, 0.0, 0.0, 0.0, 0.0, 0.0, 0.0, 0.0, 0.0, 0.0, 1.629269340156149E9, 2021-08-18 00:49:00.156
8.0, -1916859.5625, 4500000.0, -2926862.0625, 4500000.0, 4500000.0, -1936291.125, 4500000.0, -2552325.9375, 4500000.0, 4500000.0, 4500000.0, 4500000.0, 4500000.0, 4500000.0, 4500000.0, 4500000.0, 0.024000000208616257, 0.9600000381469727, 0.33000001311302185, 192.0, 0.0, 0.0, 0.0, 0.0, 0.0, 0.0, 0.0, 0.0, 0.0, 1.6292693401561556E9, 2021-08-18 00:49:00.156
10.0, -1917896.625, 4500000.0, -2927130.375, 4500000.0, 4500000.0, -1937347.3125, 4500000.0, -2552905.3125, 4500000.0, 4500000.0, 4500000.0, 4500000.0, 4500000.0, 4500000.0, 4500000.0, 4500000.0, 0.024000000208616257, 0.9600000381469727, 0.33000001311302185, 192.0, 0.0, 0.0, 0.0, 0.0, 0.0, 0.0, 0.0, 0.0, 0.0, 1.6292693401561623E9, 2021-08-18 00:49:00.156
12.0, -1916868.75, 4500000.0, -2926452.375, 4500000.0, 4500000.0, -1935999.9375, 4500000.0, -2552208.0, 4500000.0, 4500000.0, 4500000.0, 4500000.0, 4500000.0, 4500000.0, 4500000.0, 4500000.0, 0.024000000208616257, 0.9600000381469727, 0.33000001311302185, 192.0, 0.0, 0.0, 0.0, 0.0, 0.0, 0.0, 0.0, 0.0, 0.0, 1.6292693401561687E9, 2021-08-18 00:49:00.156
14.0, -1918005.9375, 4500000.0, -2926844.4375, 4500000.0, 4500000.0, -1937500.3125, 4500000.0, -2552782.5, 4500000.0, 4500000.0, 4500000.0, 4500000.0, 4500000.0, 4500000.0, 4500000.0, 4500000.0, 0.018000001087784767, 0.9740000367164612, 0.3320000171661377, 192.0, 0.0, 72.0, 15.0, 56.0, 5.0, 48.0, 0.0, 0.0, 0.0, 1.6292693401561756E9, 2021-08-18 00:49:00.156
16.0, -1916518.5, 4500000.0, -2925724.875, 4500000.0, 4500000.0, -1936069.5, 4500000.0, -2551830.1875, 4500000.0, 4500000.0, 4500000.0, 4500000.0, 4500000.0, 4500000.0, 4500000.0, 4500000.0, 0.018000001087784767, 0.9740000367164612, 0.3320000171661377, 192.0, 0.0, 0.0, 0.0, 0.0, 0.0, 0.0, 0.0, 0.0, 0.0, 1.629269340156182E9, 2021-08-18 00:49:00.156
18.0, -1917569.25, 4500000.0, -2926397.0625, 4500000.0, 4500000.0, -1937513.0625, 4500000.0, -2552894.625, 4500000.0, 4500000.0, 4500000.0, 4500000.0, 4500000.0, 4500000.0, 4500000.0, 4500000.0, 0.018000001087784767, 0.9740000367164612, 0.3320000171661377, 192.0, 0.0, 0.0, 0.0, 0.0, 0.0, 0.0, 0.0, 0.0, 0.0, 1.6292693401561887E9, 2021-08-18 00:49:00.156
20.0, -1916846.25, 4500000.0, -2926124.0625, 4500000.0, 4500000.0, -1936657.5, 4500000.0, -2552487.375, 4500000.0, 4500000.0, 4500000.0, 4500000.0, 4500000.0, 4500000.0, 4500000.0, 4500000.0, 0.018000001087784767, 0.9740000367164612, 0.3320000171661377, 192.0, 0.0, 0.0, 0.0, 0.0, 0.0, 0.0, 0.0, 0.0, 0.0, 1.6292693401561952E9, 2021-08-18 00:49:00.156
22.0, -1917215.8125, 4500000.0, -2926712.4375, 4500000.0, 4500000.0, -1937389.3125, 4500000.0, -2552472.9375, 4500000.0, 4500000.0, 4500000.0, 4500000.0, 4500000.0, 4500000.0, 4500000.0, 4500000.0, 0.018000001087784767, 0.9740000367164612, 0.3320000171661377, 192.0, 0.0, 0.0, 0.0, 0.0, 0.0, 0.0, 0.0, 0.0, 0.0, 1.629269340156202E9, 2021-08-18 00:49:00.156
24.0, -1915995.9375, 4500000.0, -2926232.25, 4500000.0, 4500000.0, -1936368.9375, 4500000.0, -2551950.9375, 4500000.0, 4500000.0, 4500000.0, 4500000.0, 4500000.0, 4500000.0, 4500000.0, 4500000.0, 0.036000002175569534, 0.9420000314712524, 0.3320000171661377, 192.0, 0.5, 16.0, 14.5, 56.0, 5.0, 48.0, 0.0, 0.0, 0.0, 1.6292693401562085E9, 2021-08-18 00:49:00.156
26.0, -1917186.75, 4500000.0, -2927061.75, 4500000.0, 4500000.0, -1937281.875, 4500000.0, -2552495.4375, 4500000.0, 4500000.0, 4500000.0, 4500000.0, 4500000.0, 4500000.0, 4500000.0, 4500000.0, 0.036000002175569534, 0.9420000314712524, 0.3320000171661377, 192.0, 0.0, 0.0, 0.0, 0.0, 0.0, 0.0, 0.0, 0.0, 0.0, 1.6292693401562152E9, 2021-08-18 00:49:00.156
28.0, -1916383.875, 4500000.0, -2926464.5625, 4500000.0, 4500000.0, -1936304.0625, 4500000.0, -2551599.5625, 4500000.0, 4500000.0, 4500000.0, 4500000.0, 4500000.0, 4500000.0, 4500000.0, 4500000.0, 0.036000002175569534, 0.9420000314712524, 0.3320000171661377, 192.0, 0.0, 0.0, 0.0, 0.0, 0.0, 0.0, 0.0, 0.0, 0.0, 1.6292693401562216E9, 2021-08-18 00:49:00.156
30.0, -1917210.9375, 4500000.0, -2926886.25, 4500000.0, 4500000.0, -1936967.625, 4500000.0, -2552697.1875, 4500000.0, 4500000.0, 4500000.0, 4500000.0, 4500000.0, 4500000.0, 4500000.0, 4500000.0, 0.036000002175569534, 0.9420000314712524, 0.3320000171661377, 192.0, 0.0, 0.0, 0.0, 0.0, 0.0, 0.0, 0.0, 0.0, 0.0, 1.6292693401562283E9, 2021-08-18 00:49:00.156
32.0, -1916850.5625, 4500000.0, -2926499.4375, 4500000.0, 4500000.0, -1936727.25, 4500000.0, -2553102.75, 4500000.0, 4500000.0, 4500000.0, 4500000.0, 4500000.0, 4500000.0, 4500000.0, 4500000.0, 0.036000002175569534, 0.9420000314712524, 0.3320000171661377, 192.0, 0.0, 0.0, 0.0, 0.0, 0.0, 0.0, 0.0, 0.0, 0.0, 1.6292693401562347E9, 2021-08-18 00:49:00.156
34.0, -1917135.9375, 4500000.0, -2926596.5625, 4500000.0, 4500000.0, -1936989.5625, 4500000.0, -2552631.1875, 4500000.0, 4500000.0, 4500000.0, 4500000.0, 4500000.0, 4500000.0, 4500000.0, 4500000.0, 0.030000001192092896, 0.9540000557899475, 0.33400002121925354, 192.0, 0.0, 120.0, 14.5, 104.0, 5.0, 56.0, 0.0, 0.0, 0.0, 1.629269340156243E9, 2021-08-18 00:49:00.156
36.0, -1916405.25, 4500000.0, -2925888.0, 4500000.0, 4500000.0, -1936891.875, 4500000.0, -2552133.9375, 4500000.0, 4500000.0, 4500000.0, 4500000.0, 4500000.0, 4500000.0, 4500000.0, 4500000.0, 0.030000001192092896, 0.9540000557899475, 0.33400002121925354, 192.0, 0.0, 0.0, 0.0, 0.0, 0.0, 0.0, 0.0, 0.0, 0.0, 1.62926934015625E9, 2021-08-18 00:49:00.156
38.0, -1916563.5, 4500000.0, -2925909.9375, 4500000.0, 4500000.0, -1936576.5, 4500000.0, -2552119.875, 4500000.0, 4500000.0, 4500000.0, 4500000.0, 4500000.0, 4500000.0, 4500000.0, 4500000.0, 0.030000001192092896, 0.9540000557899475, 0.33400002121925354, 192.0, 0.0, 0.0, 0.0, 0.0, 0.0, 0.0, 0.0, 0.0, 0.0, 1.6292693401562567E9, 2021-08-18 00:49:00.156
40.0, -1916343.0, 4500000.0, -2925862.125, 4500000.0, 4500000.0, -1936880.625, 4500000.0, -2551967.625, 4500000.0, 4500000.0, 4500000.0, 4500000.0, 4500000.0, 4500000.0, 4500000.0, 4500000.0, 0.030000001192092896, 0.9540000557899475, 0.33400002121925354, 192.0, 0.0, 0.0, 0.0, 0.0, 0.0, 0.0, 0.0, 0.0, 0.0, 1.629269340156263E9, 2021-08-18 00:49:00.156
42.0, -1916278.125, 4500000.0, -2926278.9375, 4500000.0, 4500000.0, -1936513.3125, 4500000.0, -2552492.8125, 4500000.0, 4500000.0, 4500000.0, 4500000.0, 4500000.0, 4500000.0, 4500000.0, 4500000.0, 0.027000000700354576, 0.9620000422000885, 0.33900001645088196, 192.0, 0.0, 96.0, 15.0, 40.0, 5.0, 96.0, 0.0, 0.0, 0.0, 1.6292693401562698E9, 2021-08-18 00:49:00.156
44.0, -1916932.5, 4500000.0, -2926702.875, 4500000.0, 4500000.0, -1937666.625, 4500000.0, -2552803.3125, 4500000.0, 4500000.0, 4500000.0, 4500000.0, 4500000.0, 4500000.0, 4500000.0, 4500000.0, 0.027000000700354576, 0.9620000422000885, 0.33900001645088196, 192.0, 0.0, 0.0, 0.0, 0.0, 0.0, 0.0, 0.0, 0.0, 0.0, 1.6292693401562765E9, 2021-08-18 00:49:00.156
46.0, -1915839.75, 4500000.0, -2926059.0, 4500000.0, 4500000.0, -1936118.4375, 4500000.0, -2551904.8125, 4500000.0, 4500000.0, 4500000.0, 4500000.0, 4500000.0, 4500000.0, 4500000.0, 4500000.0, 0.027000000700354576, 0.9620000422000885, 0.33900001645088196, 192.0, 0.0, 0.0, 0.0, 0.0, 0.0, 0.0, 0.0, 0.0, 0.0, 1.629269340156283E9, 2021-08-18 00:49:00.156
48.0, -1916728.125, 4500000.0, -2926442.625, 4500000.0, 4500000.0, -1937394.5625, 4500000.0, -2552206.3125, 4500000.0, 4500000.0, 4500000.0, 4500000.0, 4500000.0, 4500000.0, 4500000.0, 4500000.0, 0.027000000700354576, 0.9620000422000885, 0.33900001645088196, 192.0, 0.0, 0.0, 0.0, 0.0, 0.0, 0.0, 0.0, 0.0, 0.0, 1.6292693401562896E9, 2021-08-18 00:49:00.156
50.0, -1915724.4375, 4500000.0, -2925907.3125, 4500000.0, 4500000.0, -1936038.5625, 4500000.0, -2551818.0, 4500000.0, 4500000.0, 4500000.0, 4500000.0, 4500000.0, 4500000.0, 4500000.0, 4500000.0, 0.027000000700354576, 0.9620000422000885, 0.33900001645088196, 192.0, 0.0, 0.0, 0.0, 0.0, 0.0, 0.0, 0.0, 0.0, 0.0, 1.6292693401562963E9, 2021-08-18 00:49:00.156
52.0, -1917187.3125, 4500000.0, -2926810.6875, 4500000.0, 4500000.0, -1938052.3125, 4500000.0, -2553119.8125, 4500000.0, 4500000.0, 4500000.0, 4500000.0, 4500000.0, 4500000.0, 4500000.0, 4500000.0, 0.020500000566244125, 0.958000048995018, 0.3355000168085098, 192.0, 0.0, 56.0, 14.5, 104.0, 5.0, 48.0, 0.0, 0.0, 0.0, 1.6292693401563118E9, 2021-08-18 00:49:00.156
54.0, -1916081.8125, 4500000.0, -2926038.1875, 4500000.0, 4500000.0, -1936312.125, 4500000.0, -2552157.5625, 4500000.0, 4500000.0, 4500000.0, 4500000.0, 4500000.0, 4500000.0, 4500000.0, 4500000.0, 0.020500000566244125, 0.958000048995018, 0.3355000168085098, 192.0, 0.0, 0.0, 0.0, 0.0, 0.0, 0.0, 0.0, 0.0, 0.0, 1.629269340156319E9, 2021-08-18 00:49:00.156
56.0, -1917149.8125, 4500000.0, -2926603.5, 4500000.0, 4500000.0, -1937952.0, 4500000.0, -2552947.6875, 4500000.0, 4500000.0, 4500000.0, 4500000.0, 4500000.0, 4500000.0, 4500000.0, 4500000.0, 0.020500000566244125, 0.958000048995018, 0.3355000168085098, 192.0, 0.0, 0.0, 0.0, 0.0, 0.0, 0.0, 0.0, 0.0, 0.0, 1.6292693401563256E9, 2021-08-18 00:49:00.156
58.0, -1916171.8125, 4500000.0, -2926225.875, 4500000.0, 4500000.0, -1936334.0625, 4500000.0, -2552015.25, 4500000.0, 4500000.0, 4500000.0, 4500000.0, 4500000.0, 4500000.0, 4500000.0, 4500000.0, 0.020500000566244125, 0.958000048995018, 0.3355000168085098, 192.0, 0.0, 0.0, 0.0, 0.0, 0.0, 0.0, 0.0, 0.0, 0.0, 1.6292693401563323E9, 2021-08-18 00:49:00.156
60.0, -1917151.5, 4500000.0, -2926760.8125, 4500000.0, 4500000.0, -1937968.6875, 4500000.0, -2553090.9375, 4500000.0, 4500000.0, 4500000.0, 4500000.0, 4500000.0, 4500000.0, 4500000.0, 4500000.0, 0.020500000566244125, 0.958000048995018, 0.3355000168085098, 192.0, 0.0, 0.0, 0.0, 0.0, 0.0, 0.0, 0.0, 0.0, 0.0, 1.6292693401563387E9, 2021-08-18 00:49:00.156
62.0, -1915779.1875, 4500000.0, -2926084.3125, 4500000.0, 4500000.0, -1936390.3125, 4500000.0, -2551976.625, 4500000.0, 4500000.0, 4500000.0, 4500000.0, 4500000.0, 4500000.0, 4500000.0, 4500000.0, 0.014250000473111868, 0.9560000523924828, 0.3397500142455101, 192.0, 0.0, 32.0, 14.5, 104.0, 5.0, 96.0, 0.0, 0.0, 0.0, 1.6292693401563456E9, 2021-08-18 00:49:00.156
64.0, -1917252.375, 4500000.0, -2926953.375, 4500000.0, 4500000.0, -1938281.25, 4500000.0, -2552868.1875, 4500000.0, 4500000.0, 4500000.0, 4500000.0, 4500000.0, 4500000.0, 4500000.0, 4500000.0, 0.014250000473111868, 0.9560000523924828, 0.3397500142455101, 192.0, 0.0, 0.0, 0.0, 0.0, 0.0, 0.0, 0.0, 0.0, 0.0, 1.6292693401563523E9, 2021-08-18 00:49:00.156
66.0, -1915398.375, 4500000.0, -2925671.25, 4500000.0, 4500000.0, -1935962.25, 4500000.0, -2551562.0625, 4500000.0, 4500000.0, 4500000.0, 4500000.0, 4500000.0, 4500000.0, 4500000.0, 4500000.0, 0.014250000473111868, 0.9560000523924828, 0.3397500142455101, 192.0, 0.0, 0.0, 0.0, 0.0, 0.0, 0.0, 0.0, 0.0, 0.0, 1.6292693401563587E9, 2021-08-18 00:49:00.156
68.0, -1916810.8125, 4500000.0, -2926709.25, 4500000.0, 4500000.0, -1937837.625, 4500000.0, -2552843.625, 4500000.0, 4500000.0, 4500000.0, 4500000.0, 4500000.0, 4500000.0, 4500000.0, 4500000.0, 0.014250000473111868, 0.9560000523924828, 0.3397500142455101, 192.0, 0.0, 0.0, 0.0, 0.0, 0.0, 0.0, 0.0, 0.0, 0.0, 1.6292693401563673E9, 2021-08-18 00:49:00.156
70.0, -1915685.8125, 4500000.0, -2926116.5625, 4500000.0, 4500000.0, -1936501.5, 4500000.0, -2552080.875, 4500000.0, 4500000.0, 4500000.0, 4500000.0, 4500000.0, 4500000.0, 4500000.0, 4500000.0, 0.014250000473111868, 0.9560000523924828, 0.3397500142455101, 192.0, 0.0, 0.0, 0.0, 0.0, 0.0, 0.0, 0.0, 0.0, 0.0, 1.629269340156374E9, 2021-08-18 00:49:00.156
72.0, -1917110.625, 4500000.0, -2926911.0, 4500000.0, 4500000.0, -1938007.125, 4500000.0, -2553394.5, 4500000.0, 4500000.0, 4500000.0, 4500000.0, 4500000.0, 4500000.0, 4500000.0, 4500000.0, 0.008125000284053385, 0.9490000419318676, 0.3408750109374523, 192.0, 0.0, 8.0, 14.5, 56.0, 5.0, 88.0, 0.0, 0.0, 0.0, 1.6292693401563804E9, 2021-08-18 00:49:00.156
74.0, -1915523.25, 4500000.0, -2925760.875, 4500000.0, 4500000.0, -1936498.6875, 4500000.0, -2552265.9375, 4500000.0, 4500000.0, 4500000.0, 4500000.0, 4500000.0, 4500000.0, 4500000.0, 4500000.0, 0.008125000284053385, 0.9490000419318676, 0.3408750109374523, 192.0, 0.0, 0.0, 0.0, 0.0, 0.0, 0.0, 0.0, 0.0, 0.0, 1.629269340156387E9, 2021-08-18 00:49:00.156
76.0, -1916754.9375, 4500000.0, -2926822.875, 4500000.0, 4500000.0, -1937883.375, 4500000.0, -2552873.0625, 4500000.0, 4500000.0, 4500000.0, 4500000.0, 4500000.0, 4500000.0, 4500000.0, 4500000.0, 0.008125000284053385, 0.9490000419318676, 0.3408750109374523, 192.0, 0.0, 0.0, 0.0, 0.0, 0.0, 0.0, 0.0, 0.0, 0.0, 1.6292693401563935E9, 2021-08-18 00:49:00.156
78.0, -1915719.75, 4500000.0, -2926119.75, 4500000.0, 4500000.0, -1936978.875, 4500000.0, -2552112.9375, 4500000.0, 4500000.0, 4500000.0, 4500000.0, 4500000.0, 4500000.0, 4500000.0, 4500000.0, 0.008125000284053385, 0.9490000419318676, 0.3408750109374523, 192.0, 0.0, 0.0, 0.0, 0.0, 0.0, 0.0, 0.0, 0.0, 0.0, 1.6292693401564004E9, 2021-08-18 00:49:00.156
80.0, -1916731.875, 4500000.0, -2926908.1875, 4500000.0, 4500000.0, -1937624.25, 4500000.0, -2552994.9375, 4500000.0, 4500000.0, 4500000.0, 4500000.0, 4500000.0, 4500000.0, 4500000.0, 4500000.0, 0.008125000284053385, 0.9490000419318676, 0.3408750109374523, 192.0, 0.0, 0.0, 0.0, 0.0, 0.0, 0.0, 0.0, 0.0, 0.0, 1.6292693401564069E9, 2021-08-18 00:49:00.156
82.0, -1916163.75, 4500000.0, -2926498.5, 4500000.0, 4500000.0, -1937291.625, 4500000.0, -2552479.3125, 4500000.0, 4500000.0, 4500000.0, 4500000.0, 4500000.0, 4500000.0, 4500000.0, 4500000.0, 0.0030625000945292413, 0.9535000529140234, 0.3444375153630972, 192.0, 127.5, 120.0, 14.5, 120.0, 5.0, 112.0, 0.0, 0.0, 0.0, 1.6292693401564136E9, 2021-08-18 00:49:00.156
84.0, -1917023.8125, 4500000.0, -2927260.6875, 4500000.0, 4500000.0, -1937724.5625, 4500000.0, -2553175.6875, 4500000.0, 4500000.0, 4500000.0, 4500000.0, 4500000.0, 4500000.0, 4500000.0, 4500000.0, 0.0030625000945292413, 0.9535000529140234, 0.3444375153630972, 192.0, 0.0, 0.0, 0.0, 0.0, 0.0, 0.0, 0.0, 0.0, 0.0, 1.6292693401564207E9, 2021-08-18 00:49:00.156
86.0, -1916616.5625, 4500000.0, -2926814.4375, 4500000.0, 4500000.0, -1937749.6875, 4500000.0, -2552822.0625, 4500000.0, 4500000.0, 4500000.0, 4500000.0, 4500000.0, 4500000.0, 4500000.0, 4500000.0, 0.0030625000945292413, 0.9535000529140234, 0.3444375153630972, 192.0, 0.0, 0.0, 0.0, 0.0, 0.0, 0.0, 0.0, 0.0, 0.0, 1.6292693401564274E9, 2021-08-18 00:49:00.156
88.0, -1916578.5, 4500000.0, -2926832.625, 4500000.0, 4500000.0, -1937160.1875, 4500000.0, -2552950.3125, 4500000.0, 4500000.0, 4500000.0, 4500000.0, 4500000.0, 4500000.0, 4500000.0, 4500000.0, 0.0030625000945292413, 0.9535000529140234, 0.3444375153630972, 192.0, 0.0, 0.0, 0.0, 0.0, 0.0, 0.0, 0.0, 0.0, 0.0, 1.6292693401564343E9, 2021-08-18 00:49:00.156
90.0, -1916468.0625, 4500000.0, -2926456.5, 4500000.0, 4500000.0, -1937643.0, 4500000.0, -2552611.3125, 4500000.0, 4500000.0, 4500000.0, 4500000.0, 4500000.0, 4500000.0, 4500000.0, 4500000.0, 0.0030625000945292413, 0.9535000529140234, 0.3444375153630972, 192.0, 0.0, 0.0, 0.0, 0.0, 0.0, 0.0, 0.0, 0.0, 0.0, 1.6292693406422598E9, 2021-08-18 00:49:00.642
92.0, -1916107.5, 4500000.0, -2926568.625, 4500000.0, 4500000.0, -1936783.125, 4500000.0, -2552705.8125, 4500000.0, 4500000.0, 4500000.0, 4500000.0, 4500000.0, 4500000.0, 4500000.0, 4500000.0, 0.0030625000945292413, 0.9535000529140234, 0.3444375153630972, 192.0, 0.0, 0.0, 15.0, 16.0, 5.0, 72.0, 0.0, 0.0, 0.0, 1.629269340642269E9, 2021-08-18 00:49:00.642
94.0, -1917126.75, 4500000.0, -2927238.1875, 4500000.0, 4500000.0, -1938403.125, 4500000.0, -2553156.375, 4500000.0, 4500000.0, 4500000.0, 4500000.0, 4500000.0, 4500000.0, 4500000.0, 4500000.0, 0.0030625000945292413, 0.9535000529140234, 0.3444375153630972, 192.0, 0.0, 0.0, 0.0, 0.0, 0.0, 0.0, 0.0, 0.0, 0.0, 1.6292693406422768E9, 2021-08-18 00:49:00.642
96.0, -1916498.0625, 4500000.0, -2926736.0625, 4500000.0, 4500000.0, -1936871.625, 4500000.0, -2552610.75, 4500000.0, 4500000.0, 4500000.0, 4500000.0, 4500000.0, 4500000.0, 4500000.0, 4500000.0, 0.0030625000945292413, 0.9535000529140234, 0.3444375153630972, 192.0, 0.0, 0.0, 0.0, 0.0, 0.0, 0.0, 0.0, 0.0, 0.0, 1.629269340642284E9, 2021-08-18 00:49:00.642
98.0, -1917505.5, 4500000.0, -2927178.0, 4500000.0, 4500000.0, -1938478.6875, 4500000.0, -2553381.5625, 4500000.0, 4500000.0, 4500000.0, 4500000.0, 4500000.0, 4500000.0, 4500000.0, 4500000.0, 0.0030625000945292413, 0.9535000529140234, 0.3444375153630972, 192.0, 0.0, 0.0, 0.0, 0.0, 0.0, 0.0, 0.0, 0.0, 0.0, 1.6292693406422913E9, 2021-08-18 00:49:00.642
100.0, -1916366.625, 4500000.0, -2926521.5625, 4500000.0, 4500000.0, -1936635.5625, 4500000.0, -2552662.3125, 4500000.0, 4500000.0, 4500000.0, 4500000.0, 4500000.0, 4500000.0, 4500000.0, 4500000.0, 0.0030625000945292413, 0.9535000529140234, 0.3444375153630972, 192.0, 0.0, 0.0, 0.0, 0.0, 0.0, 0.0, 0.0, 0.0, 0.0, 1.6292693406423116E9, 2021-08-18 00:49:00.642
102.0, -1917546.1875, 4500000.0, -2927104.6875, 4500000.0, 4500000.0, -1938555.9375, 4500000.0, -2553461.625, 4500000.0, 4500000.0, 4500000.0, 4500000.0, 4500000.0, 4500000.0, 4500000.0, 4500000.0, -0.006000000052154064, 0.9720000624656677, 0.3400000035762787, 192.0, 127.5, 104.0, 15.0, 48.0, 5.0, 80.0, 0.0, 0.0, 0.0, 1.6292693406423273E9, 2021-08-18 00:49:00.642
104.0, -1916430.375, 4500000.0, -2926536.0, 4500000.0, 4500000.0, -1936698.375, 4500000.0, -2553002.4375, 4500000.0, 4500000.0, 4500000.0, 4500000.0, 4500000.0, 4500000.0, 4500000.0, 4500000.0, -0.006000000052154064, 0.9720000624656677, 0.3400000035762787, 192.0, 0.0, 0.0, 0.0, 0.0, 0.0, 0.0, 0.0, 0.0, 0.0, 1.6292693406423345E9, 2021-08-18 00:49:00.642
106.0, -1917512.4375, 4500000.0, -2927220.5625, 4500000.0, 4500000.0, -1938724.5, 4500000.0, -2554098.375, 4500000.0, 4500000.0, 4500000.0, 4500000.0, 4500000.0, 4500000.0, 4500000.0, 4500000.0, -0.006000000052154064, 0.9720000624656677, 0.3400000035762787, 192.0, 0.0, 0.0, 0.0, 0.0, 0.0, 0.0, 0.0, 0.0, 0.0, 1.6292693406423411E9, 2021-08-18 00:49:00.642
108.0, -1916292.5625, 4500000.0, -2926841.25, 4500000.0, 4500000.0, -1937131.125, 4500000.0, -2552515.3125, 4500000.0, 4500000.0, 4500000.0, 4500000.0, 4500000.0, 4500000.0, 4500000.0, 4500000.0, -0.006000000052154064, 0.9720000624656677, 0.3400000035762787, 192.0, 0.0, 0.0, 0.0, 0.0, 0.0, 0.0, 0.0, 0.0, 0.0, 1.629269340642348E9, 2021-08-18 00:49:00.642
110.0, -1917102.5625, 4500000.0, -2927102.4375, 4500000.0, 4500000.0, -1938555.9375, 4500000.0, -2553608.0625, 4500000.0, 4500000.0, 4500000.0, 4500000.0, 4500000.0, 4500000.0, 4500000.0, 4500000.0, -0.006000000052154064, 0.9720000624656677, 0.3400000035762787, 192.0, 0.0, 0.0, 0.0, 0.0, 0.0, 0.0, 0.0, 0.0, 0.0, 1.6292693406423552E9, 2021-08-18 00:49:00.642
112.0, -1915503.0, 4500000.0, -2926332.75, 4500000.0, 4500000.0, -1936544.25, 4500000.0, -2551432.6875, 4500000.0, 4500000.0, 4500000.0, 4500000.0, 4500000.0, 4500000.0, 4500000.0, 4500000.0, -0.02200000174343586, 0.9700000286102295, 0.34200000762939453, 192.0, 127.5, 40.0, 15.0, 40.0, 5.0, 88.0, 0.0, 0.0, 0.0, 1.629269340642362E9, 2021-08-18 00:49:00.642
114.0, -1917169.6875, 4500000.0, -2927484.375, 4500000.0, 4500000.0, -1938747.0, 4500000.0, -2553225.0, 4500000.0, 4500000.0, 4500000.0, 4500000.0, 4500000.0, 4500000.0, 4500000.0, 4500000.0, -0.02200000174343586, 0.9700000286102295, 0.34200000762939453, 192.0, 0.0, 0.0, 0.0, 0.0, 0.0, 0.0, 0.0, 0.0, 0.0, 1.6292693406423693E9, 2021-08-18 00:49:00.642
116.0, -1915625.8125, 4500000.0, -2926711.3125, 4500000.0, 4500000.0, -1937093.625, 4500000.0, -2552045.4375, 4500000.0, 4500000.0, 4500000.0, 4500000.0, 4500000.0, 4500000.0, 4500000.0, 4500000.0, -0.02200000174343586, 0.9700000286102295, 0.34200000762939453, 192.0, 0.0, 0.0, 0.0, 0.0, 0.0, 0.0, 0.0, 0.0, 0.0, 1.6292693406423948E9, 2021-08-18 00:49:00.642
118.0, -1916586.0, 4500000.0, -2927299.875, 4500000.0, 4500000.0, -1938671.25, 4500000.0, -2552859.1875, 4500000.0, 4500000.0, 4500000.0, 4500000.0, 4500000.0, 4500000.0, 4500000.0, 4500000.0, -0.02200000174343586, 0.9700000286102295, 0.34200000762939453, 192.0, 0.0, 0.0, 0.0, 0.0, 0.0, 0.0, 0.0, 0.0, 0.0, 1.6292693406424017E9, 2021-08-18 00:49:00.642
120.0, -1915569.375, 4500000.0, -2926680.75, 4500000.0, 4500000.0, -1937190.75, 4500000.0, -2552132.25, 4500000.0, 4500000.0, 4500000.0, 4500000.0, 4500000.0, 4500000.0, 4500000.0, 4500000.0, -0.02200000174343586, 0.9700000286102295, 0.34200000762939453, 192.0, 0.0, 0.0, 0.0, 0.0, 0.0, 0.0, 0.0, 0.0, 0.0, 1.6292693406424096E9, 2021-08-18 00:49:00.642
122.0, -1916837.0625, 4500000.0, -2927583.5625, 4500000.0, 4500000.0, -1938684.75, 4500000.0, -2553001.3125, 4500000.0, 4500000.0, 4500000.0, 4500000.0, 4500000.0, 4500000.0, 4500000.0, 4500000.0, -0.024000000208616257, 0.9540000557899475, 0.3580000102519989, 192.0, 127.5, 32.0, 14.5, 104.0, 5.5, 24.0, 0.0, 0.0, 0.0, 1.6292693406424184E9, 2021-08-18 00:49:00.642
124.0, -1915419.1875, 4500000.0, -2926583.625, 4500000.0, 4500000.0, -1937219.25, 4500000.0, -2552256.75, 4500000.0, 4500000.0, 4500000.0, 4500000.0, 4500000.0, 4500000.0, 4500000.0, 4500000.0, -0.024000000208616257, 0.9540000557899475, 0.3580000102519989, 192.0, 0.0, 0.0, 0.0, 0.0, 0.0, 0.0, 0.0, 0.0, 0.0, 1.6292693406424255E9, 2021-08-18 00:49:00.642
126.0, -1916834.4375, 4500000.0, -2927848.125, 4500000.0, 4500000.0, -1938767.8125, 4500000.0, -2553069.0, 4500000.0, 4500000.0, 4500000.0, 4500000.0, 4500000.0, 4500000.0, 4500000.0, 4500000.0, -0.024000000208616257, 0.9540000557899475, 0.3580000102519989, 192.0, 0.0, 0.0, 0.0, 0.0, 0.0, 0.0, 0.0, 0.0, 0.0, 1.6292693406424327E9, 2021-08-18 00:49:00.642
128.0, -1915813.5, 4500000.0, -2927141.0625, 4500000.0, 4500000.0, -1938007.125, 4500000.0, -2551868.4375, 4500000.0, 4500000.0, 4500000.0, 4500000.0, 4500000.0, 4500000.0, 4500000.0, 4500000.0, -0.024000000208616257, 0.9540000557899475, 0.3580000102519989, 192.0, 0.0, 0.0, 0.0, 0.0, 0.0, 0.0, 0.0, 0.0, 0.0, 1.6292693406424396E9, 2021-08-18 00:49:00.642
130.0, -1916160.0, 4500000.0, -2927417.25, 4500000.0, 4500000.0, -1938243.1875, 4500000.0, -2552500.875, 4500000.0, 4500000.0, 4500000.0, 4500000.0, 4500000.0, 4500000.0, 4500000.0, 4500000.0, -0.024000000208616257, 0.9510000646114349, 0.3630000203847885, 192.0, 127.5, 32.0, 14.5, 80.0, 5.5, 64.0, 0.0, 0.0, 0.0, 1.6292693406424468E9, 2021-08-18 00:49:00.642
132.0, -1915754.0625, 4500000.0, -2927271.375, 4500000.0, 4500000.0, -1938178.875, 4500000.0, -2552510.4375, 4500000.0, 4500000.0, 4500000.0, 4500000.0, 4500000.0, 4500000.0, 4500000.0, 4500000.0, -0.024000000208616257, 0.9510000646114349, 0.3630000203847885, 192.0, 0.0, 0.0, 0.0, 0.0, 0.0, 0.0, 0.0, 0.0, 0.0, 1.629269340642454E9, 2021-08-18 00:49:00.642
134.0, -1916334.9375, 4500000.0, -2927734.875, 4500000.0, 4500000.0, -1938109.6875, 4500000.0, -2552968.125, 4500000.0, 4500000.0, 4500000.0, 4500000.0, 4500000.0, 4500000.0, 4500000.0, 4500000.0, -0.024000000208616257, 0.9510000646114349, 0.3630000203847885, 192.0, 0.0, 0.0, 0.0, 0.0, 0.0, 0.0, 0.0, 0.0, 0.0, 1.6292693406424742E9, 2021-08-18 00:49:00.642
136.0, -1916324.25, 4500000.0, -2927522.4375, 4500000.0, 4500000.0, -1938282.375, 4500000.0, -2552309.8125, 4500000.0, 4500000.0, 4500000.0, 4500000.0, 4500000.0, 4500000.0, 4500000.0, 4500000.0, -0.024000000208616257, 0.9510000646114349, 0.3630000203847885, 192.0, 0.0, 0.0, 0.0, 0.0, 0.0, 0.0, 0.0, 0.0, 0.0, 1.629269340642481E9, 2021-08-18 00:49:00.642
138.0, -1916706.75, 4500000.0, -2927899.6875, 4500000.0, 4500000.0, -1937811.9375, 4500000.0, -2552733.1875, 4500000.0, 4500000.0, 4500000.0, 4500000.0, 4500000.0, 4500000.0, 4500000.0, 4500000.0, -0.024000000208616257, 0.9510000646114349, 0.3630000203847885, 192.0, 0.0, 0.0, 0.0, 0.0, 0.0, 0.0, 0.0, 0.0, 0.0, 1.6292693406424904E9, 2021-08-18 00:49:00.642
140.0, -1916728.6875, 4500000.0, -2927592.75, 4500000.0, 4500000.0, -1938186.375, 4500000.0, -2552839.3125, 4500000.0, 4500000.0, 4500000.0, 4500000.0, 4500000.0, 4500000.0, 4500000.0, 4500000.0, -0.018000000156462193, 0.9475000649690628, 0.37150002270936966, 192.0, 127.5, 80.0, 14.5, 64.0, 5.5, 112.0, 0.0, 0.0, 0.0, 1.6292693406424973E9, 2021-08-18 00:49:00.642
142.0, -1915896.75, 4500000.0, -2927411.4375, 4500000.0, 4500000.0, -1937006.8125, 4500000.0, -2552408.0625, 4500000.0, 4500000.0, 4500000.0, 4500000.0, 4500000.0, 4500000.0, 4500000.0, 4500000.0, -0.018000000156462193, 0.9475000649690628, 0.37150002270936966, 192.0, 0.0, 0.0, 0.0, 0.0, 0.0, 0.0, 0.0, 0.0, 0.0, 1.6292693406425045E9, 2021-08-18 00:49:00.642
144.0, -1916554.875, 4500000.0, -2927900.625, 4500000.0, 4500000.0, -1938214.3125, 4500000.0, -2552721.375, 4500000.0, 4500000.0, 4500000.0, 4500000.0, 4500000.0, 4500000.0, 4500000.0, 4500000.0, -0.018000000156462193, 0.9475000649690628, 0.37150002270936966, 192.0, 0.0, 0.0, 0.0, 0.0, 0.0, 0.0, 0.0, 0.0, 0.0, 1.6292693406425114E9, 2021-08-18 00:49:00.642
146.0, -1915904.8125, 4500000.0, -2927722.5, 4500000.0, 4500000.0, -1936765.875, 4500000.0, -2551972.5, 4500000.0, 4500000.0, 4500000.0, 4500000.0, 4500000.0, 4500000.0, 4500000.0, 4500000.0, -0.018000000156462193, 0.9475000649690628, 0.37150002270936966, 192.0, 0.0, 0.0, 0.0, 0.0, 0.0, 0.0, 0.0, 0.0, 0.0, 1.6292693406425183E9, 2021-08-18 00:49:00.642
148.0, -1916814.5625, 4500000.0, -2928232.6875, 4500000.0, 4500000.0, -1938246.0, 4500000.0, -2552694.9375, 4500000.0, 4500000.0, 4500000.0, 4500000.0, 4500000.0, 4500000.0, 4500000.0, 4500000.0, -0.018000000156462193, 0.9475000649690628, 0.37150002270936966, 192.0, 0.0, 0.0, 0.0, 0.0, 0.0, 0.0, 0.0, 0.0, 0.0, 1.6292693406425252E9, 2021-08-18 00:49:00.642
150.0, -1915724.4375, 4500000.0, -2927868.0, 4500000.0, 4500000.0, -1936452.5625, 4500000.0, -2551897.875, 4500000.0, 4500000.0, 4500000.0, 4500000.0, 4500000.0, 4500000.0, 4500000.0, 4500000.0, -0.008000000030733645, 0.9437500610947609, 0.3777500130236149, 192.0, 0.0, 8.0, 14.5, 48.0, 6.0, 0.0, 0.0, 0.0, 0.0, 1.629269340642532E9, 2021-08-18 00:49:00.642
152.0, -1916780.8125, 4500000.0, -2928425.8125, 4500000.0, 4500000.0, -1938186.375, 4500000.0, -2552877.375, 4500000.0, 4500000.0, 4500000.0, 4500000.0, 4500000.0, 4500000.0, 4500000.0, 4500000.0, -0.008000000030733645, 0.9437500610947609, 0.3777500130236149, 192.0, 0.0, 0.0, 0.0, 0.0, 0.0, 0.0, 0.0, 0.0, 0.0, 1.629269340642539E9, 2021-08-18 00:49:00.642
154.0, -1916026.5, 4500000.0, -2928215.0625, 4500000.0, 4500000.0, -1936474.125, 4500000.0, -2552237.4375, 4500000.0, 4500000.0, 4500000.0, 4500000.0, 4500000.0, 4500000.0, 4500000.0, 4500000.0, -0.008000000030733645, 0.9437500610947609, 0.3777500130236149, 192.0, 0.0, 0.0, 0.0, 0.0, 0.0, 0.0, 0.0, 0.0, 0.0, 1.629269340642546E9, 2021-08-18 00:49:00.642
