%OpenBCI Raw EEG Data
%Number of channels = 16
%Sample Rate = 125 Hz
%Board = OpenBCI_GUI$BoardCytonSerialDaisy
Sample Index, EXG Channel 0, EXG Channel 1, EXG Channel 2, EXG Channel 3, EXG Channel 4, EXG Channel 5, EXG Channel 6, EXG Channel 7, EXG Channel 8, EXG Channel 9, EXG Channel 10, EXG Channel 11, EXG Channel 12, EXG Channel 13, EXG Channel 14, EXG Channel 15, Accel Channel 0, Accel Channel 1, Accel Channel 2, Other, Other, Other, Other, Other, Other, Other, Analog Channel 0, Analog Channel 1, Analog Channel 2, Timestamp, Timestamp (Formatted)
0.0, -1209541.21875, 2249999.625, -1663284.5625, 2249999.625, 2249999.625, -1142499.9375, 2249999.625, -1471603.78125, 2249999.625, 2249999.625, 2249999.625, 2249999.625, 2249999.625, 2249999.625, 2249999.625, 2249999.625, -0.03800000250339508, 0.9380000233650208, 0.4000000059604645, 192.0, 127.0, 104.0, 14.5, 40.0, 6.0, 64.0, 0.0, 0.0, 0.0, 1.629269624321534E9, 2021-08-18 00:53:44.321
2.0, -2420140.6875, 4500000.0, -3327285.375, 4500000.0, 4500000.0, -2285298.5625, 4500000.0, -2943688.6875, 4500000.0, 4500000.0, 4500000.0, 4500000.0, 4500000.0, 4500000.0, 4500000.0, 4500000.0, -0.03800000250339508, 0.9380000233650208, 0.4000000059604645, 192.0, 0.0, 0.0, 0.0, 0.0, 0.0, 0.0, 0.0, 0.0, 0.0, 1.629269624321766E9, 2021-08-18 00:53:44.321
4.0, -2419859.625, 4500000.0, -3327031.125, 4500000.0, 4500000.0, -2286455.25, 4500000.0, -2943842.0625, 4500000.0, 4500000.0, 4500000.0, 4500000.0, 4500000.0, 4500000.0, 4500000.0, 4500000.0, -0.03800000250339508, 0.9380000233650208, 0.4000000059604645, 192.0, 0.0, 0.0, 0.0, 0.0, 0.0, 0.0, 0.0, 0.0, 0.0, 1.6292696243217728E9, 2021-08-18 00:53:44.321
6.0, -2419971.75, 4500000.0, -3327227.625, 4500000.0, 4500000.0, -2285023.3125, 4500000.0, -2943629.625, 4500000.0, 4500000.0, 4500000.0, 4500000.0, 4500000.0, 4500000.0, 4500000.0, 4500000.0, -0.03800000250339508, 0.9380000233650208, 0.4000000059604645, 192.0, 0.0, 0.0, 0.0, 0.0, 0.0, 0.0, 0.0, 0.0, 0.0, 1.6292696243217797E9, 2021-08-18 00:53:44.321
8.0, -2420348.8125, 4500000.0, -3327399.0, 4500000.0, 4500000.0, -2286898.3125, 4500000.0, -2944182.1875, 4500000.0, 4500000.0, 4500000.0, 4500000.0, 4500000.0, 4500000.0, 4500000.0, 4500000.0, -0.04800000041723251, 0.9440000653266907, 0.3720000088214874, 192.0, 127.0, 64.0, 14.5, 64.0, 5.5, 80.0, 0.0, 0.0, 0.0, 1.6292696243217869E9, 2021-08-18 00:53:44.321
10.0, -2419980.9375, 4500000.0, -3327246.75, 4500000.0, 4500000.0, -2284758.375, 4500000.0, -2943464.4375, 4500000.0, 4500000.0, 4500000.0, 4500000.0, 4500000.0, 4500000.0, 4500000.0, 4500000.0, -0.04800000041723251, 0.9440000653266907, 0.3720000088214874, 192.0, 0.0, 0.0, 0.0, 0.0, 0.0, 0.0, 0.0, 0.0, 0.0, 1.6292696243217936E9, 2021-08-18 00:53:44.321
12.0, -2420717.4375, 4500000.0, -3327793.5, 4500000.0, 4500000.0, -2287274.25, 4500000.0, -2944434.375, 4500000.0, 4500000.0, 4500000.0, 4500000.0, 4500000.0, 4500000.0, 4500000.0, 4500000.0, -0.04800000041723251, 0.9440000653266907, 0.3720000088214874, 192.0, 0.0, 0.0, 0.0, 0.0, 0.0, 0.0, 0.0, 0.0, 0.0, 1.6292696243218005E9, 2021-08-18 00:53:44.321
14.0, -2419926.1875, 4500000.0, -3327383.625, 4500000.0, 4500000.0, -2284818.0, 4500000.0, -2943081.375, 4500000.0, 4500000.0, 4500000.0, 4500000.0, 4500000.0, 4500000.0, 4500000.0, 4500000.0, -0.04800000041723251, 0.9440000653266907, 0.3720000088214874, 192.0, 0.0, 0.0, 0.0, 0.0, 0.0, 0.0, 0.0, 0.0, 0.0, 1.6292696243218071E9, 2021-08-18 00:53:44.321
16.0, -2420893.3125, 4500000.0, -3327856.875, 4500000.0, 4500000.0, -2287483.5, 4500000.0, -2944242.375, 4500000.0, 4500000.0, 4500000.0, 4500000.0, 4500000.0, 4500000.0, 4500000.0, 4500000.0, -0.04400000162422657, 0.9490000605583191, 0.36400000751018524, 192.0, 127.0, 96.0, 14.5, 104.0, 5.5, 16.0, 0.0, 0.0, 0.0, 1.629269624321814E9, 2021-08-18 00:53:44.321
18.0, -2419816.6875, 4500000.0, -3327370.5, 4500000.0, 4500000.0, -2284778.25, 4500000.0, -2943186.0, 4500000.0, 4500000.0, 4500000.0, 4500000.0, 4500000.0, 4500000.0, 4500000.0, 4500000.0, -0.04400000162422657, 0.9490000605583191, 0.36400000751018524, 192.0, 0.0, 0.0, 0.0, 0.0, 0.0, 0.0, 0.0, 0.0, 0.0, 1.6292696243218205E9, 2021-08-18 00:53:44.321
20.0, -2420744.8125, 4500000.0, -3327952.875, 4500000.0, 4500000.0, -2287375.125, 4500000.0, -2944177.3125, 4500000.0, 4500000.0, 4500000.0, 4500000.0, 4500000.0, 4500000.0, 4500000.0, 4500000.0, -0.04400000162422657, 0.9490000605583191, 0.36400000751018524, 192.0, 0.0, 0.0, 0.0, 0.0, 0.0, 0.0, 0.0, 0.0, 0.0, 1.6292696243218274E9, 2021-08-18 00:53:44.321
22.0, -2419426.6875, 4500000.0, -3327282.0, 4500000.0, 4500000.0, -2284669.875, 4500000.0, -2942800.875, 4500000.0, 4500000.0, 4500000.0, 4500000.0, 4500000.0, 4500000.0, 4500000.0, 4500000.0, -0.04400000162422657, 0.9490000605583191, 0.36400000751018524, 192.0, 0.0, 0.0, 0.0, 0.0, 0.0, 0.0, 0.0, 0.0, 0.0, 1.629269624321834E9, 2021-08-18 00:53:44.321
24.0, -2421190.5, 4500000.0, -3328592.25, 4500000.0, 4500000.0, -2287864.875, 4500000.0, -2944383.9375, 4500000.0, 4500000.0, 4500000.0, 4500000.0, 4500000.0, 4500000.0, 4500000.0, 4500000.0, -0.04400000162422657, 0.9490000605583191, 0.36400000751018524, 192.0, 0.0, 0.0, 0.0, 0.0, 0.0, 0.0, 0.0, 0.0, 0.0, 1.629269624321841E9, 2021-08-18 00:53:44.321
26.0, -2419959.0, 4500000.0, -3327829.875, 4500000.0, 4500000.0, -2285389.3125, 4500000.0, -2943580.3125, 4500000.0, 4500000.0, 4500000.0, 4500000.0, 4500000.0, 4500000.0, 4500000.0, 4500000.0, -0.038000001572072506, 0.9515000581741333, 0.35600001364946365, 192.0, 127.5, 0.0, 14.5, 104.0, 5.0, 112.0, 0.0, 0.0, 0.0, 1.629269624321848E9, 2021-08-18 00:53:44.321
28.0, -2421332.25, 4500000.0, -3328773.375, 4500000.0, 4500000.0, -2287817.25, 4500000.0, -2944373.25, 4500000.0, 4500000.0, 4500000.0, 4500000.0, 4500000.0, 4500000.0, 4500000.0, 4500000.0, -0.038000001572072506, 0.9515000581741333, 0.35600001364946365, 192.0, 0.0, 0.0, 0.0, 0.0, 0.0, 0.0, 0.0, 0.0, 0.0, 1.6292696243218546E9, 2021-08-18 00:53:44.321
30.0, -2419795.875, 4500000.0, -3327940.5, 4500000.0, 4500000.0, -2285408.0625, 4500000.0, -2943106.125, 4500000.0, 4500000.0, 4500000.0, 4500000.0, 4500000.0, 4500000.0, 4500000.0, 4500000.0, -0.038000001572072506, 0.9515000581741333, 0.35600001364946365, 192.0, 0.0, 0.0, 0.0, 0.0, 0.0, 0.0, 0.0, 0.0, 0.0, 1.6292696243218613E9, 2021-08-18 00:53:44.321
32.0, -2421412.125, 4500000.0, -3329037.0, 4500000.0, 4500000.0, -2287695.9375, 4500000.0, -2944433.25, 4500000.0, 4500000.0, 4500000.0, 4500000.0, 4500000.0, 4500000.0, 4500000.0, 4500000.0, -0.038000001572072506, 0.9515000581741333, 0.35600001364946365, 192.0, 0.0, 0.0, 0.0, 0.0, 0.0, 0.0, 0.0, 0.0, 0.0, 1.629269624321868E9, 2021-08-18 00:53:44.321
34.0, -2419499.625, 4500000.0, -3327661.875, 4500000.0, 4500000.0, -2285229.375, 4500000.0, -2942911.875, 4500000.0, 4500000.0, 4500000.0, 4500000.0, 4500000.0, 4500000.0, 4500000.0, 4500000.0, -0.038000001572072506, 0.9515000581741333, 0.35600001364946365, 192.0, 0.0, 0.0, 0.0, 0.0, 0.0, 0.0, 0.0, 0.0, 0.0, 1.6292696243218842E9, 2021-08-18 00:53:44.321
36.0, -2420836.5, 4500000.0, -3328629.75, 4500000.0, 4500000.0, -2286937.5, 4500000.0, -2943672.5625, 4500000.0, 4500000.0, 4500000.0, 4500000.0, 4500000.0, 4500000.0, 4500000.0, 4500000.0, -0.03300000121816993, 0.9547500610351562, 0.3460000194609165, 192.0, 127.5, 16.0, 14.5, 120.0, 5.0, 64.0, 0.0, 0.0, 0.0, 1.629269624321891E9, 2021-08-18 00:53:44.321
38.0, -2419876.875, 4500000.0, -3327995.25, 4500000.0, 4500000.0, -2285755.6875, 4500000.0, -2943136.6875, 4500000.0, 4500000.0, 4500000.0, 4500000.0, 4500000.0, 4500000.0, 4500000.0, 4500000.0, -0.03300000121816993, 0.9547500610351562, 0.3460000194609165, 192.0, 0.0, 0.0, 0.0, 0.0, 0.0, 0.0, 0.0, 0.0, 0.0, 1.6292696243218987E9, 2021-08-18 00:53:44.321
40.0, -2421189.0, 4500000.0, -3328991.625, 4500000.0, 4500000.0, -2286910.6875, 4500000.0, -2944200.0, 4500000.0, 4500000.0, 4500000.0, 4500000.0, 4500000.0, 4500000.0, 4500000.0, 4500000.0, -0.03300000121816993, 0.9547500610351562, 0.3460000194609165, 192.0, 0.0, 0.0, 0.0, 0.0, 0.0, 0.0, 0.0, 0.0, 0.0, 1.6292696243219056E9, 2021-08-18 00:53:44.321
42.0, -2420072.0625, 4500000.0, -3328054.5, 4500000.0, 4500000.0, -2286078.0, 4500000.0, -2943534.1875, 4500000.0, 4500000.0, 4500000.0, 4500000.0, 4500000.0, 4500000.0, 4500000.0, 4500000.0, -0.03300000121816993, 0.9547500610351562, 0.3460000194609165, 192.0, 0.0, 0.0, 0.0, 0.0, 0.0, 0.0, 0.0, 0.0, 0.0, 1.6292696243219123E9, 2021-08-18 00:53:44.321
44.0, -2420970.1875, 4500000.0, -3328779.375, 4500000.0, 4500000.0, -2286340.875, 4500000.0, -2943659.8125, 4500000.0, 4500000.0, 4500000.0, 4500000.0, 4500000.0, 4500000.0, 4500000.0, 4500000.0, -0.03300000121816993, 0.9547500610351562, 0.3460000194609165, 192.0, 0.0, 0.0, 0.0, 0.0, 0.0, 0.0, 0.0, 0.0, 0.0, 1.6292696243219192E9, 2021-08-18 00:53:44.321
46.0, -2420361.1875, 4500000.0, -3328789.125, 4500000.0, 4500000.0, -2286932.0625, 4500000.0, -2943736.5, 4500000.0, 4500000.0, 4500000.0, 4500000.0, 4500000.0, 4500000.0, 4500000.0, 4500000.0, -0.025500001152977347, 0.960375040769577, 0.3440000135451555, 192.0, 127.5, 56.0, 15.0, 24.0, 5.0, 88.0, 0.0, 0.0, 0.0, 1.629269624321926E9, 2021-08-18 00:53:44.321
48.0, -2420923.5, 4500000.0, -3329091.75, 4500000.0, 4500000.0, -2286448.6875, 4500000.0, -2943724.6875, 4500000.0, 4500000.0, 4500000.0, 4500000.0, 4500000.0, 4500000.0, 4500000.0, 4500000.0, -0.025500001152977347, 0.960375040769577, 0.3440000135451555, 192.0, 0.0, 0.0, 0.0, 0.0, 0.0, 0.0, 0.0, 0.0, 0.0, 1.6292696243219328E9, 2021-08-18 00:53:44.321
50.0, -2420739.375, 4500000.0, -3329220.375, 4500000.0, 4500000.0, -2287598.8125, 4500000.0, -2943992.8125, 4500000.0, 4500000.0, 4500000.0, 4500000.0, 4500000.0, 4500000.0, 4500000.0, 4500000.0, -0.025500001152977347, 0.960375040769577, 0.3440000135451555, 192.0, 0.0, 0.0, 0.0, 0.0, 0.0, 0.0, 0.0, 0.0, 0.0, 1.6292696243219397E9, 2021-08-18 00:53:44.321
52.0, -2420630.625, 4500000.0, -3329325.0, 4500000.0, 4500000.0, -2286304.5, 4500000.0, -2943483.75, 4500000.0, 4500000.0, 4500000.0, 4500000.0, 4500000.0, 4500000.0, 4500000.0, 4500000.0, -0.025500001152977347, 0.960375040769577, 0.3440000135451555, 192.0, 0.0, 0.0, 0.0, 0.0, 0.0, 0.0, 0.0, 0.0, 0.0, 1.6292696243219464E9, 2021-08-18 00:53:44.321
54.0, -2420605.3125, 4500000.0, -3329196.75, 4500000.0, 4500000.0, -2287694.8125, 4500000.0, -2943562.6875, 4500000.0, 4500000.0, 4500000.0, 4500000.0, 4500000.0, 4500000.0, 4500000.0, 4500000.0, -0.025500001152977347, 0.960375040769577, 0.3440000135451555, 192.0, 0.0, 0.0, 0.0, 0.0, 0.0, 0.0, 0.0, 0.0, 0.0, 1.6292696243219533E9, 2021-08-18 00:53:44.321
56.0, -2420514.1875, 4500000.0, -3329194.5, 4500000.0, 4500000.0, -2285982.5625, 4500000.0, -2943240.1875, 4500000.0, 4500000.0, 4500000.0, 4500000.0, 4500000.0, 4500000.0, 4500000.0, 4500000.0, -0.010000000707805157, 0.9600000381469727, 0.3400000035762787, 192.0, 127.5, 88.0, 15.0, 0.0, 5.0, 80.0, 0.0, 0.0, 0.0, 1.62926962432196E9, 2021-08-18 00:53:44.321
58.0, -2421067.6875, 4500000.0, -3329430.0, 4500000.0, 4500000.0, -2288148.75, 4500000.0, -2944030.875, 4500000.0, 4500000.0, 4500000.0, 4500000.0, 4500000.0, 4500000.0, 4500000.0, 4500000.0, -0.010000000707805157, 0.9600000381469727, 0.3400000035762787, 192.0, 0.0, 0.0, 0.0, 0.0, 0.0, 0.0, 0.0, 0.0, 0.0, 1.629269624321967E9, 2021-08-18 00:53:44.321
60.0, -2420160.5625, 4500000.0, -3329026.5, 4500000.0, 4500000.0, -2285709.5625, 4500000.0, -2942878.125, 4500000.0, 4500000.0, 4500000.0, 4500000.0, 4500000.0, 4500000.0, 4500000.0, 4500000.0, -0.010000000707805157, 0.9600000381469727, 0.3400000035762787, 192.0, 0.0, 0.0, 0.0, 0.0, 0.0, 0.0, 0.0, 0.0, 0.0, 1.6292696243219736E9, 2021-08-18 00:53:44.321
62.0, -2420962.6875, 4500000.0, -3329470.5, 4500000.0, 4500000.0, -2288226.0, 4500000.0, -2943865.125, 4500000.0, 4500000.0, 4500000.0, 4500000.0, 4500000.0, 4500000.0, 4500000.0, 4500000.0, -0.010000000707805157, 0.9600000381469727, 0.3400000035762787, 192.0, 0.0, 0.0, 0.0, 0.0, 0.0, 0.0, 0.0, 0.0, 0.0, 1.6292696243219805E9, 2021-08-18 00:53:44.321
64.0, -2420219.0625, 4500000.0, -3329077.125, 4500000.0, 4500000.0, -2285874.75, 4500000.0, -2943015.0, 4500000.0, 4500000.0, 4500000.0, 4500000.0, 4500000.0, 4500000.0, 4500000.0, 4500000.0, -0.010000000707805157, 0.9600000381469727, 0.3400000035762787, 192.0, 0.0, 0.0, 0.0, 0.0, 0.0, 0.0, 0.0, 0.0, 0.0, 1.6292696243219872E9, 2021-08-18 00:53:44.321
66.0, -2421027.5625, 4500000.0, -3329419.5, 4500000.0, 4500000.0, -2288535.9375, 4500000.0, -2943889.875, 4500000.0, 4500000.0, 4500000.0, 4500000.0, 4500000.0, 4500000.0, 4500000.0, 4500000.0, -0.012000000104308128, 0.9500000476837158, 0.3500000238418579, 192.0, 127.5, 80.0, 14.5, 88.0, 5.0, 120.0, 0.0, 0.0, 0.0, 1.629269624321994E9, 2021-08-18 00:53:44.321
68.0, -2420200.875, 4500000.0, -3329014.875, 4500000.0, 4500000.0, -2286278.0625, 4500000.0, -2943081.9375, 4500000.0, 4500000.0, 4500000.0, 4500000.0, 4500000.0, 4500000.0, 4500000.0, 4500000.0, -0.012000000104308128, 0.9500000476837158, 0.3500000238418579, 192.0, 0.0, 0.0, 0.0, 0.0, 0.0, 0.0, 0.0, 0.0, 0.0, 1.6292696243220034E9, 2021-08-18 00:53:44.322
70.0, -2421585.9375, 4500000.0, -3329571.75, 4500000.0, 4500000.0, -2288998.5, 4500000.0, -2944382.8125, 4500000.0, 4500000.0, 4500000.0, 4500000.0, 4500000.0, 4500000.0, 4500000.0, 4500000.0, -0.012000000104308128, 0.9500000476837158, 0.3500000238418579, 192.0, 0.0, 0.0, 0.0, 0.0, 0.0, 0.0, 0.0, 0.0, 0.0, 1.6292696243220105E9, 2021-08-18 00:53:44.322
72.0, -2420276.4375, 4500000.0, -3329032.5, 4500000.0, 4500000.0, -2286406.875, 4500000.0, -2943122.8125, 4500000.0, 4500000.0, 4500000.0, 4500000.0, 4500000.0, 4500000.0, 4500000.0, 4500000.0, -0.012000000104308128, 0.9500000476837158, 0.3500000238418579, 192.0, 0.0, 0.0, 0.0, 0.0, 0.0, 0.0, 0.0, 0.0, 0.0, 1.6292696243220172E9, 2021-08-18 00:53:44.322
74.0, -2421552.75, 4500000.0, -3330051.75, 4500000.0, 4500000.0, -2289230.625, 4500000.0, -2944213.875, 4500000.0, 4500000.0, 4500000.0, 4500000.0, 4500000.0, 4500000.0, 4500000.0, 4500000.0, -0.012000000104308128, 0.9500000476837158, 0.3500000238418579, 192.0, 0.0, 0.0, 0.0, 0.0, 0.0, 0.0, 0.0, 0.0, 0.0, 1.629269624322024E9, 2021-08-18 00:53:44.322
76.0, -2420234.0625, 4500000.0, -3329181.0, 4500000.0, 4500000.0, -2286581.8125, 4500000.0, -2942849.25, 4500000.0, 4500000.0, 4500000.0, 4500000.0, 4500000.0, 4500000.0, 4500000.0, 4500000.0, -0.01600000075995922, 0.9520000219345093, 0.35600000619888306, 192.0, 127.5, 64.0, 14.5, 96.0, 5.5, 16.0, 0.0, 0.0, 0.0, 1.6292696243220308E9, 2021-08-18 00:53:44.322
78.0, -2422132.125, 4500000.0, -3330560.25, 4500000.0, 4500000.0, -2289370.6875, 4500000.0, -2944466.625, 4500000.0, 4500000.0, 4500000.0, 4500000.0, 4500000.0, 4500000.0, 4500000.0, 4500000.0, -0.01600000075995922, 0.9520000219345093, 0.35600000619888306, 192.0, 0.0, 0.0, 0.0, 0.0, 0.0, 0.0, 0.0, 0.0, 0.0, 1.6292696243220377E9, 2021-08-18 00:53:44.322
80.0, -2420495.8125, 4500000.0, -3329412.0, 4500000.0, 4500000.0, -2286828.0, 4500000.0, -2943062.0625, 4500000.0, 4500000.0, 4500000.0, 4500000.0, 4500000.0, 4500000.0, 4500000.0, 4500000.0, -0.01600000075995922, 0.9520000219345093, 0.35600000619888306, 192.0, 0.0, 0.0, 0.0, 0.0, 0.0, 0.0, 0.0, 0.0, 0.0, 1.6292696243220444E9, 2021-08-18 00:53:44.322
82.0, -2421926.0625, 4500000.0, -3330346.5, 4500000.0, 4500000.0, -2288693.8125, 4500000.0, -2943821.25, 4500000.0, 4500000.0, 4500000.0, 4500000.0, 4500000.0, 4500000.0, 4500000.0, 4500000.0, -0.01600000075995922, 0.9520000219345093, 0.35600000619888306, 192.0, 0.0, 0.0, 0.0, 0.0, 0.0, 0.0, 0.0, 0.0, 0.0, 1.6292696243220513E9, 2021-08-18 00:53:44.322
84.0, -2420728.125, 4500000.0, -3329620.875, 4500000.0, 4500000.0, -2287194.9375, 4500000.0, -2943005.8125, 4500000.0, 4500000.0, 4500000.0, 4500000.0, 4500000.0, 4500000.0, 4500000.0, 4500000.0, -0.01600000075995922, 0.9520000219345093, 0.35600000619888306, 192.0, 0.0, 0.0, 0.0, 0.0, 0.0, 0.0, 0.0, 0.0, 0.0, 1.629269624322058E9, 2021-08-18 00:53:44.322
86.0, -2421587.625, 4500000.0, -3330070.5, 4500000.0, 4500000.0, -2288313.9375, 4500000.0, -2943675.75, 4500000.0, 4500000.0, 4500000.0, 4500000.0, 4500000.0, 4500000.0, 4500000.0, 4500000.0, -0.018000001087784767, 0.9540000557899475, 0.3460000157356262, 192.0, 127.5, 56.0, 14.5, 104.0, 5.0, 104.0, 0.0, 0.0, 0.0, 1.6292696243220649E9, 2021-08-18 00:53:44.322
88.0, -2420531.25, 4500000.0, -3329235.0, 4500000.0, 4500000.0, -2287368.1875, 4500000.0, -2943105.0, 4500000.0, 4500000.0, 4500000.0, 4500000.0, 4500000.0, 4500000.0, 4500000.0, 4500000.0, -0.018000001087784767, 0.9540000557899475, 0.3460000157356262, 192.0, 0.0, 0.0, 0.0, 0.0, 0.0, 0.0, 0.0, 0.0, 0.0, 1.6292696243220716E9, 2021-08-18 00:53:44.322
90.0, -2421950.25, 4500000.0, -3330087.375, 4500000.0, 4500000.0, -2288351.4375, 4500000.0, -2944057.3125, 4500000.0, 4500000.0, 4500000.0, 4500000.0, 4500000.0, 4500000.0, 4500000.0, 4500000.0, -0.018000001087784767, 0.9540000557899475, 0.3460000157356262, 192.0, 0.0, 0.0, 0.0, 0.0, 0.0, 0.0, 0.0, 0.0, 0.0, 1.6292696243220782E9, 2021-08-18 00:53:44.322
92.0, -2420990.4375, 4500000.0, -3329451.0, 4500000.0, 4500000.0, -2288047.875, 4500000.0, -2943590.0625, 4500000.0, 4500000.0, 4500000.0, 4500000.0, 4500000.0, 4500000.0, 4500000.0, 4500000.0, -0.018000001087784767, 0.9540000557899475, 0.3460000157356262, 192.0, 0.0, 0.0, 0.0, 0.0, 0.0, 0.0, 0.0, 0.0, 0.0, 1.629269624322085E9, 2021-08-18 00:53:44.322
94.0, -2421683.0625, 4500000.0, -3329901.0, 4500000.0, 4500000.0, -2287991.625, 4500000.0, -2943999.375, 4500000.0, 4500000.0, 4500000.0, 4500000.0, 4500000.0, 4500000.0, 4500000.0, 4500000.0, -0.018000001087784767, 0.9540000557899475, 0.3460000157356262, 192.0, 0.0, 0.0, 0.0, 0.0, 0.0, 0.0, 0.0, 0.0, 0.0, 1.6292696243220918E9, 2021-08-18 00:53:44.322
96.0, -2421038.8125, 4500000.0, -3329408.25, 4500000.0, 4500000.0, -2288299.5, 4500000.0, -2943340.5, 4500000.0, 4500000.0, 4500000.0, 4500000.0, 4500000.0, 4500000.0, 4500000.0, 4500000.0, -0.018000001087784767, 0.9540000557899475, 0.3540000021457672, 192.0, 127.5, 56.0, 14.5, 104.0, 5.5, 8.0, 0.0, 0.0, 0.0, 1.6292696243220985E9, 2021-08-18 00:53:44.322
98.0, -2421569.25, 4500000.0, -3329835.75, 4500000.0, 4500000.0, -2287619.25, 4500000.0, -2943252.0, 4500000.0, 4500000.0, 4500000.0, 4500000.0, 4500000.0, 4500000.0, 4500000.0, 4500000.0, -0.018000001087784767, 0.9540000557899475, 0.3540000021457672, 192.0, 0.0, 0.0, 0.0, 0.0, 0.0, 0.0, 0.0, 0.0, 0.0, 1.6292696243221054E9, 2021-08-18 00:53:44.322
100.0, -2421584.8125, 4500000.0, -3329625.75, 4500000.0, 4500000.0, -2288561.8125, 4500000.0, -2943541.125, 4500000.0, 4500000.0, 4500000.0, 4500000.0, 4500000.0, 4500000.0, 4500000.0, 4500000.0, -0.018000001087784767, 0.9540000557899475, 0.3540000021457672, 192.0, 0.0, 0.0, 0.0, 0.0, 0.0, 0.0, 0.0, 0.0, 0.0, 1.629269624322112E9, 2021-08-18 00:53:44.322
102.0, -2421815.625, 4500000.0, -3329896.875, 4500000.0, 4500000.0, -2287393.3125, 4500000.0, -2943489.75, 4500000.0, 4500000.0, 4500000.0, 4500000.0, 4500000.0, 4500000.0, 4500000.0, 4500000.0, -0.018000001087784767, 0.9540000557899475, 0.3540000021457672, 192.0, 0.0, 0.0, 0.0, 0.0, 0.0, 0.0, 0.0, 0.0, 0.0, 1.6292696243221242E9, 2021-08-18 00:53:44.322
104.0, -2422150.875, 4500000.0, -3330021.75, 4500000.0, 4500000.0, -2289237.1875, 4500000.0, -2944106.625, 4500000.0, 4500000.0, 4500000.0, 4500000.0, 4500000.0, 4500000.0, 4500000.0, 4500000.0, -0.022000000812113285, 0.9520000517368317, 0.3530000150203705, 192.0, 127.5, 24.0, 14.5, 88.0, 5.5, 0.0, 0.0, 0.0, 0.0, 1.629269624322131E9, 2021-08-18 00:53:44.322
106.0, -2421512.4375, 4500000.0, -3329675.25, 4500000.0, 4500000.0, -2287074.1875, 4500000.0, -2943336.1875, 4500000.0, 4500000.0, 4500000.0, 4500000.0, 4500000.0, 4500000.0, 4500000.0, 4500000.0, -0.022000000812113285, 0.9520000517368317, 0.3530000150203705, 192.0, 0.0, 0.0, 0.0, 0.0, 0.0, 0.0, 0.0, 0.0, 0.0, 1.6292696243221378E9, 2021-08-18 00:53:44.322
108.0, -2421908.25, 4500000.0, -3329905.5, 4500000.0, 4500000.0, -2289300.0, 4500000.0, -2943963.9375, 4500000.0, 4500000.0, 4500000.0, 4500000.0, 4500000.0, 4500000.0, 4500000.0, 4500000.0, -0.022000000812113285, 0.9520000517368317, 0.3530000150203705, 192.0, 0.0, 0.0, 0.0, 0.0, 0.0, 0.0, 0.0, 0.0, 0.0, 1.6292696243221538E9, 2021-08-18 00:53:44.322
110.0, -2421464.25, 4500000.0, -3329968.125, 4500000.0, 4500000.0, -2287259.8125, 4500000.0, -2943350.8125, 4500000.0, 4500000.0, 4500000.0, 4500000.0, 4500000.0, 4500000.0, 4500000.0, 4500000.0, -0.022000000812113285, 0.9520000517368317, 0.3530000150203705, 192.0, 0.0, 0.0, 0.0, 0.0, 0.0, 0.0, 0.0, 0.0, 0.0, 1.6292696243221607E9, 2021-08-18 00:53:44.322
112.0, -2422302.0, 4500000.0, -3330378.0, 4500000.0, 4500000.0, -2289791.25, 4500000.0, -2943978.9375, 4500000.0, 4500000.0, 4500000.0, 4500000.0, 4500000.0, 4500000.0, 4500000.0, 4500000.0, -0.022000000812113285, 0.9520000517368317, 0.3530000150203705, 192.0, 0.0, 0.0, 0.0, 0.0, 0.0, 0.0, 0.0, 0.0, 0.0, 1.629269624322168E9, 2021-08-18 00:53:44.322
114.0, -2421513.5625, 4500000.0, -3329756.625, 4500000.0, 4500000.0, -2287082.8125, 4500000.0, -2943174.1875, 4500000.0, 4500000.0, 4500000.0, 4500000.0, 4500000.0, 4500000.0, 4500000.0, 4500000.0, -0.031000001821666956, 0.9430000334978104, 0.35350000858306885, 192.0, 127.0, 96.0, 14.5, 24.0, 5.5, 8.0, 0.0, 0.0, 0.0, 1.6292696243221748E9, 2021-08-18 00:53:44.322
116.0, -2422417.875, 4500000.0, -3330269.625, 4500000.0, 4500000.0, -2289848.25, 4500000.0, -2944060.5, 4500000.0, 4500000.0, 4500000.0, 4500000.0, 4500000.0, 4500000.0, 4500000.0, 4500000.0, -0.031000001821666956, 0.9430000334978104, 0.35350000858306885, 192.0, 0.0, 0.0, 0.0, 0.0, 0.0, 0.0, 0.0, 0.0, 0.0, 1.6292696243221817E9, 2021-08-18 00:53:44.322
118.0, -2421084.375, 4500000.0, -3329304.0, 4500000.0, 4500000.0, -2286901.5, 4500000.0, -2942857.6875, 4500000.0, 4500000.0, 4500000.0, 4500000.0, 4500000.0, 4500000.0, 4500000.0, 4500000.0, -0.031000001821666956, 0.9430000334978104, 0.35350000858306885, 192.0, 0.0, 0.0, 0.0, 0.0, 0.0, 0.0, 0.0, 0.0, 0.0, 1.6292696243222165E9, 2021-08-18 00:53:44.322
120.0, -2422687.3125, 4500000.0, -3330248.25, 4500000.0, 4500000.0, -2289848.625, 4500000.0, -2944396.3125, 4500000.0, 4500000.0, 4500000.0, 4500000.0, 4500000.0, 4500000.0, 4500000.0, 4500000.0, -0.031000001821666956, 0.9430000334978104, 0.35350000858306885, 192.0, 0.0, 0.0, 0.0, 0.0, 0.0, 0.0, 0.0, 0.0, 0.0, 1.629269624644374E9, 2021-08-18 00:53:44.644
122.0, -2421280.125, 4500000.0, -3329296.875, 4500000.0, 4500000.0, -2287002.9375, 4500000.0, -2943266.4375, 4500000.0, 4500000.0, 4500000.0, 4500000.0, 4500000.0, 4500000.0, 4500000.0, 4500000.0, -0.031000001821666956, 0.9430000334978104, 0.35350000858306885, 192.0, 0.0, 0.0, 0.0, 0.0, 0.0, 0.0, 0.0, 0.0, 0.0, 1.6292696246445007E9, 2021-08-18 00:53:44.644
124.0, -2422648.6875, 4500000.0, -3330310.5, 4500000.0, 4500000.0, -2289554.25, 4500000.0, -2944314.1875, 4500000.0, 4500000.0, 4500000.0, 4500000.0, 4500000.0, 4500000.0, 4500000.0, 4500000.0, -0.03450000216253102, 0.9335000291466713, 0.3517500162124634, 192.0, 127.0, 104.0, 14.0, 112.0, 5.0, 120.0, 0.0, 0.0, 0.0, 1.6292696246445117E9, 2021-08-18 00:53:44.644
126.0, -2421148.6875, 4500000.0, -3329296.125, 4500000.0, 4500000.0, -2286955.6875, 4500000.0, -2942830.3125, 4500000.0, 4500000.0, 4500000.0, 4500000.0, 4500000.0, 4500000.0, 4500000.0, 4500000.0, -0.03450000216253102, 0.9335000291466713, 0.3517500162124634, 192.0, 0.0, 0.0, 0.0, 0.0, 0.0, 0.0, 0.0, 0.0, 0.0, 1.6292696246445203E9, 2021-08-18 00:53:44.644
128.0, -2422650.1875, 4500000.0, -3330362.25, 4500000.0, 4500000.0, -2289357.375, 4500000.0, -2943981.0, 4500000.0, 4500000.0, 4500000.0, 4500000.0, 4500000.0, 4500000.0, 4500000.0, 4500000.0, -0.03450000216253102, 0.9335000291466713, 0.3517500162124634, 192.0, 0.0, 0.0, 0.0, 0.0, 0.0, 0.0, 0.0, 0.0, 0.0, 1.629269624644528E9, 2021-08-18 00:53:44.644
130.0, -2421270.0, 4500000.0, -3329478.375, 4500000.0, 4500000.0, -2287168.6875, 4500000.0, -2942880.1875, 4500000.0, 4500000.0, 4500000.0, 4500000.0, 4500000.0, 4500000.0, 4500000.0, 4500000.0, -0.03450000216253102, 0.9335000291466713, 0.3517500162124634, 192.0, 0.0, 0.0, 0.0, 0.0, 0.0, 0.0, 0.0, 0.0, 0.0, 1.6292696246445355E9, 2021-08-18 00:53:44.644
132.0, -2422344.9375, 4500000.0, -3330516.0, 4500000.0, 4500000.0, -2289027.9375, 4500000.0, -2944040.625, 4500000.0, 4500000.0, 4500000.0, 4500000.0, 4500000.0, 4500000.0, 4500000.0, 4500000.0, -0.03450000216253102, 0.9335000291466713, 0.3517500162124634, 192.0, 0.0, 0.0, 0.0, 0.0, 0.0, 0.0, 0.0, 0.0, 0.0, 1.6292696246445436E9, 2021-08-18 00:53:44.644
134.0, -2421406.6875, 4500000.0, -3329782.5, 4500000.0, 4500000.0, -2287586.4375, 4500000.0, -2943408.1875, 4500000.0, 4500000.0, 4500000.0, 4500000.0, 4500000.0, 4500000.0, 4500000.0, 4500000.0, -0.031250001513399184, 0.9397500343620777, 0.34687501192092896, 192.0, 127.5, 16.0, 14.5, 72.0, 5.0, 88.0, 0.0, 0.0, 0.0, 1.6292696246445513E9, 2021-08-18 00:53:44.644
136.0, -2422365.375, 4500000.0, -3330352.125, 4500000.0, 4500000.0, -2288485.6875, 4500000.0, -2943663.5625, 4500000.0, 4500000.0, 4500000.0, 4500000.0, 4500000.0, 4500000.0, 4500000.0, 4500000.0, -0.031250001513399184, 0.9397500343620777, 0.34687501192092896, 192.0, 0.0, 0.0, 0.0, 0.0, 0.0, 0.0, 0.0, 0.0, 0.0, 1.6292696246445744E9, 2021-08-18 00:53:44.644
138.0, -2421426.0, 4500000.0, -3329673.75, 4500000.0, 4500000.0, -2287685.25, 4500000.0, -2943174.1875, 4500000.0, 4500000.0, 4500000.0, 4500000.0, 4500000.0, 4500000.0, 4500000.0, 4500000.0, -0.031250001513399184, 0.9397500343620777, 0.34687501192092896, 192.0, 0.0, 0.0, 0.0, 0.0, 0.0, 0.0, 0.0, 0.0, 0.0, 1.629269624644593E9, 2021-08-18 00:53:44.644
140.0, -2422389.0, 4500000.0, -3330156.0, 4500000.0, 4500000.0, -2287895.4375, 4500000.0, -2943492.9375, 4500000.0, 4500000.0, 4500000.0, 4500000.0, 4500000.0, 4500000.0, 4500000.0, 4500000.0, -0.031250001513399184, 0.9397500343620777, 0.34687501192092896, 192.0, 0.0, 0.0, 0.0, 0.0, 0.0, 0.0, 0.0, 0.0, 0.0, 1.6292696246445997E9, 2021-08-18 00:53:44.644
142.0, -2421802.6875, 4500000.0, -3329883.375, 4500000.0, 4500000.0, -2288037.1875, 4500000.0, -2943487.5, 4500000.0, 4500000.0, 4500000.0, 4500000.0, 4500000.0, 4500000.0, 4500000.0, 4500000.0, -0.031250001513399184, 0.9397500343620777, 0.34687501192092896, 192.0, 0.0, 0.0, 0.0, 0.0, 0.0, 0.0, 0.0, 0.0, 0.0, 1.629269624644608E9, 2021-08-18 00:53:44.644
144.0, -2422307.4375, 4500000.0, -3330206.25, 4500000.0, 4500000.0, -2287584.375, 4500000.0, -2943563.25, 4500000.0, 4500000.0, 4500000.0, 4500000.0, 4500000.0, 4500000.0, 4500000.0, 4500000.0, -0.024000000208616257, 0.956000030040741, 0.3500000238418579, 192.0, 127.5, 32.0, 14.5, 112.0, 5.0, 120.0, 0.0, 0.0, 0.0, 1.6292696246446147E9, 2021-08-18 00:53:44.644
146.0, -2421824.625, 4500000.0, -3329761.125, 4500000.0, 4500000.0, -2288132.625, 4500000.0, -2943329.8125, 4500000.0, 4500000.0, 4500000.0, 4500000.0, 4500000.0, 4500000.0, 4500000.0, 4500000.0, -0.024000000208616257, 0.956000030040741, 0.3500000238418579, 192.0, 0.0, 0.0, 0.0, 0.0, 0.0, 0.0, 0.0, 0.0, 0.0, 1.6292696246446211E9, 2021-08-18 00:53:44.644
148.0, -2422073.625, 4500000.0, -3330134.25, 4500000.0, 4500000.0, -2287318.3125, 4500000.0, -2943313.125, 4500000.0, 4500000.0, 4500000.0, 4500000.0, 4500000.0, 4500000.0, 4500000.0, 4500000.0, -0.024000000208616257, 0.956000030040741, 0.3500000238418579, 192.0, 0.0, 0.0, 0.0, 0.0, 0.0, 0.0, 0.0, 0.0, 0.0, 1.629269624644628E9, 2021-08-18 00:53:44.644
150.0, -2422233.375, 4500000.0, -3330178.875, 4500000.0, 4500000.0, -2288827.3125, 4500000.0, -2943872.25, 4500000.0, 4500000.0, 4500000.0, 4500000.0, 4500000.0, 4500000.0, 4500000.0, 4500000.0, -0.024000000208616257, 0.956000030040741, 0.3500000238418579, 192.0, 0.0, 0.0, 0.0, 0.0, 0.0, 0.0, 0.0, 0.0, 0.0, 1.6292696246446345E9, 2021-08-18 00:53:44.644
152.0, -2422334.8125, 4500000.0, -3330432.0, 4500000.0, 4500000.0, -2287470.1875, 4500000.0, -2943635.625, 4500000.0, 4500000.0, 4500000.0, 4500000.0, 4500000.0, 4500000.0, 4500000.0, 4500000.0, -0.024000000208616257, 0.956000030040741, 0.3500000238418579, 192.0, 0.0, 0.0, 0.0, 0.0, 0.0, 0.0, 0.0, 0.0, 0.0, 1.6292696246446412E9, 2021-08-18 00:53:44.644
154.0, -2422699.5, 4500000.0, -3330519.0, 4500000.0, 4500000.0, -2289426.0, 4500000.0, -2944277.625, 4500000.0, 4500000.0, 4500000.0, 4500000.0, 4500000.0, 4500000.0, 4500000.0, 4500000.0, -0.03200000151991844, 0.9480000734329224, 0.34800001978874207, 192.0, 127.5, 0.0, 14.5, 80.0, 5.0, 112.0, 0.0, 0.0, 0.0, 1.629269624644648E9, 2021-08-18 00:53:44.644
156.0, -2422249.5, 4500000.0, -3330139.875, 4500000.0, 4500000.0, -2287244.8125, 4500000.0, -2943549.75, 4500000.0, 4500000.0, 4500000.0, 4500000.0, 4500000.0, 4500000.0, 4500000.0, 4500000.0, -0.03200000151991844, 0.9480000734329224, 0.34800001978874207, 192.0, 0.0, 0.0, 0.0, 0.0, 0.0, 0.0, 0.0, 0.0, 0.0, 1.6292696246446545E9, 2021-08-18 00:53:44.644
158.0, -2422992.0, 4500000.0, -3330312.0, 4500000.0, 4500000.0, -2289552.5625, 4500000.0, -2944420.875, 4500000.0, 4500000.0, 4500000.0, 4500000.0, 4500000.0, 4500000.0, 4500000.0, 4500000.0, -0.03200000151991844, 0.9480000734329224, 0.34800001978874207, 192.0, 0.0, 0.0, 0.0, 0.0, 0.0, 0.0, 0.0, 0.0, 0.0, 1.6292696246446612E9, 2021-08-18 00:53:44.644
160.0, -2421936.75, 4500000.0, -3329859.75, 4500000.0, 4500000.0, -2287239.375, 4500000.0, -2943557.8125, 4500000.0, 4500000.0, 4500000.0, 4500000.0, 4500000.0, 4500000.0, 4500000.0, 4500000.0, -0.03200000151991844, 0.9480000734329224, 0.34800001978874207, 192.0, 0.0, 0.0, 0.0, 0.0, 0.0, 0.0, 0.0, 0.0, 0.0, 1.629269624644668E9, 2021-08-18 00:53:44.644
162.0, -2422808.4375, 4500000.0, -3330425.625, 4500000.0, 4500000.0, -2289945.1875, 4500000.0, -2944659.1875, 4500000.0, 4500000.0, 4500000.0, 4500000.0, 4500000.0, 4500000.0, 4500000.0, 4500000.0, -0.03200000151991844, 0.9480000734329224, 0.34800001978874207, 192.0, 0.0, 0.0, 0.0, 0.0, 0.0, 0.0, 0.0, 0.0, 0.0, 1.6292696246446748E9, 2021-08-18 00:53:44.644
164.0, -2421863.8125, 4500000.0, -3329982.0, 4500000.0, 4500000.0, -2287375.6875, 4500000.0, -2943584.625, 4500000.0, 4500000.0, 4500000.0, 4500000.0, 4500000.0, 4500000.0, 4500000.0, 4500000.0, -0.03800000250339508, 0.9500000476837158, 0.35200002789497375, 192.0, 127.0, 104.0, 14.5, 88.0, 5.5, 0.0, 0.0, 0.0, 0.0, 1.6292696246446817E9, 2021-08-18 00:53:44.644
166.0, -2423019.9375, 4500000.0, -3330666.75, 4500000.0, 4500000.0, -2290214.0625, 4500000.0, -2944458.5625, 4500000.0, 4500000.0, 4500000.0, 4500000.0, 4500000.0, 4500000.0, 4500000.0, 4500000.0, -0.03800000250339508, 0.9500000476837158, 0.35200002789497375, 192.0, 0.0, 0.0, 0.0, 0.0, 0.0, 0.0, 0.0, 0.0, 0.0, 1.629269624644689E9, 2021-08-18 00:53:44.644
168.0, -2421352.5, 4500000.0, -3329547.75, 4500000.0, 4500000.0, -2287299.0, 4500000.0, -2942949.0, 4500000.0, 4500000.0, 4500000.0, 4500000.0, 4500000.0, 4500000.0, 4500000.0, 4500000.0, -0.03800000250339508, 0.9500000476837158, 0.35200002789497375, 192.0, 0.0, 0.0, 0.0, 0.0, 0.0, 0.0, 0.0, 0.0, 0.0, 1.629269624644696E9, 2021-08-18 00:53:44.644
170.0, -2422669.5, 4500000.0, -3330106.5, 4500000.0, 4500000.0, -2289839.625, 4500000.0, -2943993.375, 4500000.0, 4500000.0, 4500000.0, 4500000.0, 4500000.0, 4500000.0, 4500000.0, 4500000.0, -0.03800000250339508, 0.9500000476837158, 0.35200002789497375, 192.0, 0.0, 0.0, 0.0, 0.0, 0.0, 0.0, 0.0, 0.0, 0.0, 1.6292696246447031E9, 2021-08-18 00:53:44.644
172.0, -2421293.0625, 4500000.0, -3329248.125, 4500000.0, 4500000.0, -2287391.8125, 4500000.0, -2942955.9375, 4500000.0, 4500000.0, 4500000.0, 4500000.0, 4500000.0, 4500000.0, 4500000.0, 4500000.0, -0.03800000250339508, 0.9500000476837158, 0.35200002789497375, 192.0, 0.0, 0.0, 0.0, 0.0, 0.0, 0.0, 0.0, 0.0, 0.0, 1.6292696246447124E9, 2021-08-18 00:53:44.644
174.0, -2422919.625, 4500000.0, -3330156.0, 4500000.0, 4500000.0, -2290003.6875, 4500000.0, -2944312.125, 4500000.0, 4500000.0, 4500000.0, 4500000.0, 4500000.0, 4500000.0, 4500000.0, 4500000.0, -0.05000000074505806, 0.9520000219345093, 0.34800001978874207, 192.0, 127.0, 56.0, 14.5, 96.0, 5.0, 112.0, 0.0, 0.0, 0.0, 1.6292696246447191E9, 2021-08-18 00:53:44.644
176.0, -2421383.25, 4500000.0, -3329196.75, 4500000.0, 4500000.0, -2287728.1875, 4500000.0, -2943039.0, 4500000.0, 4500000.0, 4500000.0, 4500000.0, 4500000.0, 4500000.0, 4500000.0, 4500000.0, -0.05000000074505806, 0.9520000219345093, 0.34800001978874207, 192.0, 0.0, 0.0, 0.0, 0.0, 0.0, 0.0, 0.0, 0.0, 0.0, 1.6292696246447268E9, 2021-08-18 00:53:44.644
178.0, -2422979.625, 4500000.0, -3330334.5, 4500000.0, 4500000.0, -2290236.0, 4500000.0, -2944696.125, 4500000.0, 4500000.0, 4500000.0, 4500000.0, 4500000.0, 4500000.0, 4500000.0, 4500000.0, -0.05000000074505806, 0.9520000219345093, 0.34800001978874207, 192.0, 0.0, 0.0, 0.0, 0.0, 0.0, 0.0, 0.0, 0.0, 0.0, 1.6292696246447337E9, 2021-08-18 00:53:44.644
180.0, -2421255.0, 4500000.0, -3329109.375, 4500000.0, 4500000.0, -2288107.5, 4500000.0, -2943288.5625, 4500000.0, 4500000.0, 4500000.0, 4500000.0, 4500000.0, 4500000.0, 4500000.0, 4500000.0, -0.05000000074505806, 0.9520000219345093, 0.34800001978874207, 192.0, 0.0, 0.0, 0.0, 0.0, 0.0, 0.0, 0.0, 0.0, 0.0, 1.6292696246447408E9, 2021-08-18 00:53:44.644
182.0, -2422790.25, 4500000.0, -3330190.125, 4500000.0, 4500000.0, -2289932.4375, 4500000.0, -2944509.9375, 4500000.0, 4500000.0, 4500000.0, 4500000.0, 4500000.0, 4500000.0, 4500000.0, 4500000.0, -0.05000000074505806, 0.9520000219345093, 0.34800001978874207, 192.0, 0.0, 0.0, 0.0, 0.0, 0.0, 0.0, 0.0, 0.0, 0.0, 1.6292696246447475E9, 2021-08-18 00:53:44.644
184.0, -2421752.8125, 4500000.0, -3329358.375, 4500000.0, 4500000.0, -2288705.625, 4500000.0, -2943842.0625, 4500000.0, 4500000.0, 4500000.0, 4500000.0, 4500000.0, 4500000.0, 4500000.0, 4500000.0, -0.052000001072883606, 0.9500000476837158, 0.3440000116825104, 192.0, 127.0, 48.0, 14.5, 88.0, 5.0, 96.0, 0.0, 0.0, 0.0, 1.6292696246447546E9, 2021-08-18 00:53:44.644
186.0, -2422752.1875, 4500000.0, -3330113.625, 4500000.0, 4500000.0, -2289603.5625, 4500000.0, -2944215.0, 4500000.0, 4500000.0, 4500000.0, 4500000.0, 4500000.0, 4500000.0, 4500000.0, 4500000.0, -0.052000001072883606, 0.9500000476837158, 0.3440000116825104, 192.0, 0.0, 0.0, 0.0, 0.0, 0.0, 0.0, 0.0, 0.0, 0.0, 1.629269624644853E9, 2021-08-18 00:53:44.644
188.0, -2421873.5625, 4500000.0, -3329490.0, 4500000.0, 4500000.0, -2289000.5625, 4500000.0, -2943611.4375, 4500000.0, 4500000.0, 4500000.0, 4500000.0, 4500000.0, 4500000.0, 4500000.0, 4500000.0, -0.052000001072883606, 0.9500000476837158, 0.3440000116825104, 192.0, 0.0, 0.0, 0.0, 0.0, 0.0, 0.0, 0.0, 0.0, 0.0, 1.6292696246448605E9, 2021-08-18 00:53:44.644
190.0, -2422559.625, 4500000.0, -3329979.75, 4500000.0, 4500000.0, -2289087.0, 4500000.0, -2944055.0625, 4500000.0, 4500000.0, 4500000.0, 4500000.0, 4500000.0, 4500000.0, 4500000.0, 4500000.0, -0.052000001072883606, 0.9500000476837158, 0.3440000116825104, 192.0, 0.0, 0.0, 0.0, 0.0, 0.0, 0.0, 0.0, 0.0, 0.0, 1.6292696246448672E9, 2021-08-18 00:53:44.644
192.0, -2421969.0, 4500000.0, -3329468.625, 4500000.0, 4500000.0, -2289254.8125, 4500000.0, -2943771.9375, 4500000.0, 4500000.0, 4500000.0, 4500000.0, 4500000.0, 4500000.0, 4500000.0, 4500000.0, -0.05300000123679638, 0.9450000524520874, 0.34700001776218414, 192.0, 127.0, 40.0, 14.5, 48.0, 5.0, 120.0, 0.0, 0.0, 0.0, 1.629269624644874E9, 2021-08-18 00:53:44.644
194.0, -2422321.875, 4500000.0, -3329681.625, 4500000.0, 4500000.0, -2288617.5, 4500000.0, -2943756.75, 4500000.0, 4500000.0, 4500000.0, 4500000.0, 4500000.0, 4500000.0, 4500000.0, 4500000.0, -0.05300000123679638, 0.9450000524520874, 0.34700001776218414, 192.0, 0.0, 0.0, 0.0, 0.0, 0.0, 0.0, 0.0, 0.0, 0.0, 1.6292696246448812E9, 2021-08-18 00:53:44.644
196.0, -2421964.125, 4500000.0, -3329296.875, 4500000.0, 4500000.0, -2289401.8125, 4500000.0, -2943829.875, 4500000.0, 4500000.0, 4500000.0, 4500000.0, 4500000.0, 4500000.0, 4500000.0, 4500000.0, -0.05300000123679638, 0.9450000524520874, 0.34700001776218414, 192.0, 0.0, 0.0, 0.0, 0.0, 0.0, 0.0, 0.0, 0.0, 0.0, 1.629269624644888E9, 2021-08-18 00:53:44.644
198.0, -2422222.125, 4500000.0, -3329542.125, 4500000.0, 4500000.0, -2288311.3125, 4500000.0, -2943688.125, 4500000.0, 4500000.0, 4500000.0, 4500000.0, 4500000.0, 4500000.0, 4500000.0, 4500000.0, -0.05300000123679638, 0.9450000524520874, 0.34700001776218414, 192.0, 0.0, 0.0, 0.0, 0.0, 0.0, 0.0, 0.0, 0.0, 0.0, 1.6292696246448953E9, 2021-08-18 00:53:44.644
200.0, -2422264.5, 4500000.0, -3329131.875, 4500000.0, 4500000.0, -2289644.25, 4500000.0, -2943966.0, 4500000.0, 4500000.0, 4500000.0, 4500000.0, 4500000.0, 4500000.0, 4500000.0, 4500000.0, -0.05300000123679638, 0.9450000524520874, 0.34700001776218414, 192.0, 0.0, 0.0, 0.0, 0.0, 0.0, 0.0, 0.0, 0.0, 0.0, 1.6292696251137621E9, 2021-08-18 00:53:45.113
202.0, -2422090.125, 4500000.0, -3329178.0, 4500000.0, 4500000.0, -2287973.25, 4500000.0, -2943518.0625, 4500000.0, 4500000.0, 4500000.0, 4500000.0, 4500000.0, 4500000.0, 4500000.0, 4500000.0, -0.05750000197440386, 0.9395000338554382, 0.3465000167489052, 192.0, 127.0, 8.0, 14.5, 24.0, 5.0, 104.0, 0.0, 0.0, 0.0, 1.629269625113774E9, 2021-08-18 00:53:45.113
204.0, -2422872.375, 4500000.0, -3329640.0, 4500000.0, 4500000.0, -2290259.625, 4500000.0, -2944469.8125, 4500000.0, 4500000.0, 4500000.0, 4500000.0, 4500000.0, 4500000.0, 4500000.0, 4500000.0, -0.05750000197440386, 0.9395000338554382, 0.3465000167489052, 192.0, 0.0, 0.0, 0.0, 0.0, 0.0, 0.0, 0.0, 0.0, 0.0, 1.6292696251137838E9, 2021-08-18 00:53:45.113
206.0, -2422597.6875, 4500000.0, -3329754.0, 4500000.0, 4500000.0, -2288180.8125, 4500000.0, -2944110.375, 4500000.0, 4500000.0, 4500000.0, 4500000.0, 4500000.0, 4500000.0, 4500000.0, 4500000.0, -0.05750000197440386, 0.9395000338554382, 0.3465000167489052, 192.0, 0.0, 0.0, 0.0, 0.0, 0.0, 0.0, 0.0, 0.0, 0.0, 1.6292696251138122E9, 2021-08-18 00:53:45.113
208.0, -2423244.5625, 4500000.0, -3330030.0, 4500000.0, 4500000.0, -2290443.0, 4500000.0, -2944731.0, 4500000.0, 4500000.0, 4500000.0, 4500000.0, 4500000.0, 4500000.0, 4500000.0, 4500000.0, -0.05750000197440386, 0.9395000338554382, 0.3465000167489052, 192.0, 0.0, 0.0, 0.0, 0.0, 0.0, 0.0, 0.0, 0.0, 0.0, 1.629269625113822E9, 2021-08-18 00:53:45.113
210.0, -2421860.625, 4500000.0, -3329071.875, 4500000.0, 4500000.0, -2287291.5, 4500000.0, -2943319.6875, 4500000.0, 4500000.0, 4500000.0, 4500000.0, 4500000.0, 4500000.0, 4500000.0, 4500000.0, -0.05750000197440386, 0.9395000338554382, 0.3465000167489052, 192.0, 0.0, 0.0, 0.0, 0.0, 0.0, 0.0, 0.0, 0.0, 0.0, 1.62926962511383E9, 2021-08-18 00:53:45.113
212.0, -2423309.4375, 4500000.0, -3330277.5, 4500000.0, 4500000.0, -2290485.0, 4500000.0, -2944787.25, 4500000.0, 4500000.0, 4500000.0, 4500000.0, 4500000.0, 4500000.0, 4500000.0, 4500000.0, -0.0597500023432076, 0.9407500326633453, 0.34025001898407936, 192.0, 127.0, 8.0, 14.5, 56.0, 5.0, 56.0, 0.0, 0.0, 0.0, 1.6292696251138437E9, 2021-08-18 00:53:45.113
214.0, -2421615.0, 4500000.0, -3329105.625, 4500000.0, 4500000.0, -2287233.5625, 4500000.0, -2943273.0, 4500000.0, 4500000.0, 4500000.0, 4500000.0, 4500000.0, 4500000.0, 4500000.0, 4500000.0, -0.0597500023432076, 0.9407500326633453, 0.34025001898407936, 192.0, 0.0, 0.0, 0.0, 0.0, 0.0, 0.0, 0.0, 0.0, 0.0, 1.629269625113856E9, 2021-08-18 00:53:45.113
216.0, -2423093.8125, 4500000.0, -3330192.0, 4500000.0, 4500000.0, -2290111.5, 4500000.0, -2944627.5, 4500000.0, 4500000.0, 4500000.0, 4500000.0, 4500000.0, 4500000.0, 4500000.0, 4500000.0, -0.0597500023432076, 0.9407500326633453, 0.34025001898407936, 192.0, 0.0, 0.0, 0.0, 0.0, 0.0, 0.0, 0.0, 0.0, 0.0, 1.6292696251138692E9, 2021-08-18 00:53:45.113
218.0, -2421805.3125, 4500000.0, -3329370.0, 4500000.0, 4500000.0, -2287338.75, 4500000.0, -2943392.0625, 4500000.0, 4500000.0, 4500000.0, 4500000.0, 4500000.0, 4500000.0, 4500000.0, 4500000.0, -0.0597500023432076, 0.9407500326633453, 0.34025001898407936, 192.0, 0.0, 0.0, 0.0, 0.0, 0.0, 0.0, 0.0, 0.0, 0.0, 1.6292696251138816E9, 2021-08-18 00:53:45.113
220.0, -2423289.75, 4500000.0, -3330307.875, 4500000.0, 4500000.0, -2290045.125, 4500000.0, -2944767.9375, 4500000.0, 4500000.0, 4500000.0, 4500000.0, 4500000.0, 4500000.0, 4500000.0, 4500000.0, -0.0597500023432076, 0.9407500326633453, 0.34025001898407936, 192.0, 0.0, 0.0, 0.0, 0.0, 0.0, 0.0, 0.0, 0.0, 0.0, 1.629269625113892E9, 2021-08-18 00:53:45.113
222.0, -2421843.9375, 4500000.0, -3329199.0, 4500000.0, 4500000.0, -2287370.25, 4500000.0, -2943337.875, 4500000.0, 4500000.0, 4500000.0, 4500000.0, 4500000.0, 4500000.0, 4500000.0, 4500000.0, -0.06087500252760947, 0.9463750272989273, 0.340125011280179, 192.0, 127.0, 8.0, 14.5, 96.0, 5.0, 80.0, 0.0, 0.0, 0.0, 1.6292696251139057E9, 2021-08-18 00:53:45.113
224.0, -2423371.3125, 4500000.0, -3330108.75, 4500000.0, 4500000.0, -2289827.8125, 4500000.0, -2944685.4375, 4500000.0, 4500000.0, 4500000.0, 4500000.0, 4500000.0, 4500000.0, 4500000.0, 4500000.0, -0.06087500252760947, 0.9463750272989273, 0.340125011280179, 192.0, 0.0, 0.0, 0.0, 0.0, 0.0, 0.0, 0.0, 0.0, 0.0, 1.6292696251139169E9, 2021-08-18 00:53:45.113
226.0, -2421516.75, 4500000.0, -3328995.0, 4500000.0, 4500000.0, -2287456.6875, 4500000.0, -2943240.1875, 4500000.0, 4500000.0, 4500000.0, 4500000.0, 4500000.0, 4500000.0, 4500000.0, 4500000.0, -0.06087500252760947, 0.9463750272989273, 0.340125011280179, 192.0, 0.0, 0.0, 0.0, 0.0, 0.0, 0.0, 0.0, 0.0, 0.0, 1.6292696251139283E9, 2021-08-18 00:53:45.113
228.0, -2422932.375, 4500000.0, -3330202.125, 4500000.0, 4500000.0, -2289637.875, 4500000.0, -2944390.875, 4500000.0, 4500000.0, 4500000.0, 4500000.0, 4500000.0, 4500000.0, 4500000.0, 4500000.0, -0.06087500252760947, 0.9463750272989273, 0.340125011280179, 192.0, 0.0, 0.0, 0.0, 0.0, 0.0, 0.0, 0.0, 0.0, 0.0, 1.6292696251139445E9, 2021-08-18 00:53:45.113
230.0, -2421600.375, 4500000.0, -3329346.75, 4500000.0, 4500000.0, -2287866.5625, 4500000.0, -2943475.125, 4500000.0, 4500000.0, 4500000.0, 4500000.0, 4500000.0, 4500000.0, 4500000.0, 4500000.0, -0.06087500252760947, 0.9463750272989273, 0.340125011280179, 192.0, 0.0, 0.0, 0.0, 0.0, 0.0, 0.0, 0.0, 0.0, 0.0, 1.6292696251139576E9, 2021-08-18 00:53:45.113
232.0, -2422988.8125, 4500000.0, -3330344.25, 4500000.0, 4500000.0, -2289300.0, 4500000.0, -2944293.1875, 4500000.0, 4500000.0, 4500000.0, 4500000.0, 4500000.0, 4500000.0, 4500000.0, 4500000.0, -0.05643750180024654, 0.9541875496506691, 0.3370625162497163, 192.0, 127.0, 48.0, 15.0, 8.0, 5.0, 56.0, 0.0, 0.0, 0.0, 1.6292696251139717E9, 2021-08-18 00:53:45.113
234.0, -2421577.875, 4500000.0, -3329290.125, 4500000.0, 4500000.0, -2287966.3125, 4500000.0, -2943200.0625, 4500000.0, 4500000.0, 4500000.0, 4500000.0, 4500000.0, 4500000.0, 4500000.0, 4500000.0, -0.05643750180024654, 0.9541875496506691, 0.3370625162497163, 192.0, 0.0, 0.0, 0.0, 0.0, 0.0, 0.0, 0.0, 0.0, 0.0, 1.6292696251139877E9, 2021-08-18 00:53:45.113
236.0, -2422676.4375, 4500000.0, -3330181.125, 4500000.0, 4500000.0, -2288863.3125, 4500000.0, -2944049.25, 4500000.0, 4500000.0, 4500000.0, 4500000.0, 4500000.0, 4500000.0, 4500000.0, 4500000.0, -0.05643750180024654, 0.9541875496506691, 0.3370625162497163, 192.0, 0.0, 0.0, 0.0, 0.0, 0.0, 0.0, 0.0, 0.0, 0.0, 1.6292696251140008E9, 2021-08-18 00:53:45.114
238.0, -2422059.0, 4500000.0, -3329581.5, 4500000.0, 4500000.0, -2288392.875, 4500000.0, -2943658.125, 4500000.0, 4500000.0, 4500000.0, 4500000.0, 4500000.0, 4500000.0, 4500000.0, 4500000.0, -0.05643750180024654, 0.9541875496506691, 0.3370625162497163, 192.0, 0.0, 0.0, 0.0, 0.0, 0.0, 0.0, 0.0, 0.0, 0.0, 1.629269625114018E9, 2021-08-18 00:53:45.114
240.0, -2422761.75, 4500000.0, -3330052.5, 4500000.0, 4500000.0, -2288271.0, 4500000.0, -2944115.25, 4500000.0, 4500000.0, 4500000.0, 4500000.0, 4500000.0, 4500000.0, 4500000.0, 4500000.0, -0.05643750180024654, 0.9541875496506691, 0.3370625162497163, 192.0, 0.0, 0.0, 0.0, 0.0, 0.0, 0.0, 0.0, 0.0, 0.0, 1.6292696251140528E9, 2021-08-18 00:53:45.114
242.0, -2422209.75, 4500000.0, -3329625.75, 4500000.0, 4500000.0, -2288575.125, 4500000.0, -2943653.8125, 4500000.0, 4500000.0, 4500000.0, 4500000.0, 4500000.0, 4500000.0, 4500000.0, 4500000.0, -0.04000000283122063, 0.9700000286102295, 0.32600000500679016, 192.0, 127.0, 96.0, 15.0, 40.0, 5.0, 24.0, 0.0, 0.0, 0.0, 1.629269625114064E9, 2021-08-18 00:53:45.114
244.0, -2422497.9375, 4500000.0, -3329894.25, 4500000.0, 4500000.0, -2287786.6875, 4500000.0, -2943578.8125, 4500000.0, 4500000.0, 4500000.0, 4500000.0, 4500000.0, 4500000.0, 4500000.0, 4500000.0, -0.04000000283122063, 0.9700000286102295, 0.32600000500679016, 192.0, 0.0, 0.0, 0.0, 0.0, 0.0, 0.0, 0.0, 0.0, 0.0, 1.629269625114079E9, 2021-08-18 00:53:45.114
246.0, -2422249.5, 4500000.0, -3329815.875, 4500000.0, 4500000.0, -2288882.0625, 4500000.0, -2943775.125, 4500000.0, 4500000.0, 4500000.0, 4500000.0, 4500000.0, 4500000.0, 4500000.0, 4500000.0, -0.04000000283122063, 0.9700000286102295, 0.32600000500679016, 192.0, 0.0, 0.0, 0.0, 0.0, 0.0, 0.0, 0.0, 0.0, 0.0, 1.6292696251140907E9, 2021-08-18 00:53:45.114
248.0, -2422313.8125, 4500000.0, -3329951.625, 4500000.0, 4500000.0, -2287582.3125, 4500000.0, -2943592.6875, 4500000.0, 4500000.0, 4500000.0, 4500000.0, 4500000.0, 4500000.0, 4500000.0, 4500000.0, -0.04000000283122063, 0.9700000286102295, 0.32600000500679016, 192.0, 0.0, 0.0, 0.0, 0.0, 0.0, 0.0, 0.0, 0.0, 0.0, 1.6292696251140988E9, 2021-08-18 00:53:45.114
250.0, -2422580.4375, 4500000.0, -3330102.75, 4500000.0, 4500000.0, -2289285.9375, 4500000.0, -2943914.0625, 4500000.0, 4500000.0, 4500000.0, 4500000.0, 4500000.0, 4500000.0, 4500000.0, 4500000.0, -0.04000000283122063, 0.9700000286102295, 0.32600000500679016, 192.0, 0.0, 0.0, 0.0, 0.0, 0.0, 0.0, 0.0, 0.0, 0.0, 1.6292696251141076E9, 2021-08-18 00:53:45.114
252.0, -2421985.5, 4500000.0, -3329688.0, 4500000.0, 4500000.0, -2287076.8125, 4500000.0, -2943153.375, 4500000.0, 4500000.0, 4500000.0, 4500000.0, 4500000.0, 4500000.0, 4500000.0, 4500000.0, -0.03400000184774399, 0.9800000190734863, 0.32600000500679016, 192.0, 127.0, 120.0, 15.0, 80.0, 5.0, 24.0, 0.0, 0.0, 0.0, 1.6292696251141331E9, 2021-08-18 00:53:45.114
254.0, -2422766.625, 4500000.0, -3330108.0, 4500000.0, 4500000.0, -2289335.25, 4500000.0, -2944076.625, 4500000.0, 4500000.0, 4500000.0, 4500000.0, 4500000.0, 4500000.0, 4500000.0, 4500000.0, -0.03400000184774399, 0.9800000190734863, 0.32600000500679016, 192.0, 0.0, 0.0, 0.0, 0.0, 0.0, 0.0, 0.0, 0.0, 0.0, 1.6292696251141448E9, 2021-08-18 00:53:45.114
0.0, -2422122.375, 4500000.0, -3329743.5, 4500000.0, 4500000.0, -2287021.6875, 4500000.0, -2942850.1875, 4500000.0, 4500000.0, 4500000.0, 4500000.0, 4500000.0, 4500000.0, 4500000.0, 4500000.0, -0.03400000184774399, 0.9800000190734863, 0.32600000500679016, 192.0, 0.0, 0.0, 0.0, 0.0, 0.0, 0.0, 0.0, 0.0, 0.0, 1.629269625114156E9, 2021-08-18 00:53:45.114
2.0, -2423219.4375, 4500000.0, -3330328.125, 4500000.0, 4500000.0, -2289619.6875, 4500000.0, -2943769.6875, 4500000.0, 4500000.0, 4500000.0, 4500000.0, 4500000.0, 4500000.0, 4500000.0, 4500000.0, -0.03400000184774399, 0.9800000190734863, 0.32600000500679016, 192.0, 0.0, 0.0, 0.0, 0.0, 0.0, 0.0, 0.0, 0.0, 0.0, 1.6292696251141655E9, 2021-08-18 00:53:45.114
4.0, -2422094.4375, 4500000.0, -3329667.375, 4500000.0, 4500000.0, -2286964.3125, 4500000.0, -2942741.25, 4500000.0, 4500000.0, 4500000.0, 4500000.0, 4500000.0, 4500000.0, 4500000.0, 4500000.0, -0.03400000184774399, 0.9800000190734863, 0.32600000500679016, 192.0, 0.0, 0.0, 0.0, 0.0, 0.0, 0.0, 0.0, 0.0, 0.0, 1.629269625114175E9, 2021-08-18 00:53:45.114
6.0, -2423536.5, 4500000.0, -3330750.75, 4500000.0, 4500000.0, -2290112.0625, 4500000.0, -2944266.375, 4500000.0, 4500000.0, 4500000.0, 4500000.0, 4500000.0, 4500000.0, 4500000.0, 4500000.0, -0.020000001415610313, 0.9780000448226929, 0.33400002121925354, 192.0, 127.5, 48.0, 15.0, 72.0, 5.0, 56.0, 0.0, 0.0, 0.0, 1.6292696251141884E9, 2021-08-18 00:53:45.114
8.0, -2422129.3125, 4500000.0, -3329992.875, 4500000.0, 4500000.0, -2287385.4375, 4500000.0, -2943267.5625, 4500000.0, 4500000.0, 4500000.0, 4500000.0, 4500000.0, 4500000.0, 4500000.0, 4500000.0, -0.020000001415610313, 0.9780000448226929, 0.33400002121925354, 192.0, 0.0, 0.0, 0.0, 0.0, 0.0, 0.0, 0.0, 0.0, 0.0, 1.629269625114198E9, 2021-08-18 00:53:45.114
10.0, -2423156.0625, 4500000.0, -3330653.625, 4500000.0, 4500000.0, -2289756.9375, 4500000.0, -2944122.1875, 4500000.0, 4500000.0, 4500000.0, 4500000.0, 4500000.0, 4500000.0, 4500000.0, 4500000.0, -0.020000001415610313, 0.9780000448226929, 0.33400002121925354, 192.0, 0.0, 0.0, 0.0, 0.0, 0.0, 0.0, 0.0, 0.0, 0.0, 1.6292696251142087E9, 2021-08-18 00:53:45.114
12.0, -2421717.375, 4500000.0, -3329800.875, 4500000.0, 4500000.0, -2287217.4375, 4500000.0, -2942876.0625, 4500000.0, 4500000.0, 4500000.0, 4500000.0, 4500000.0, 4500000.0, 4500000.0, 4500000.0, -0.020000001415610313, 0.9780000448226929, 0.33400002121925354, 192.0, 0.0, 0.0, 0.0, 0.0, 0.0, 0.0, 0.0, 0.0, 0.0, 1.629269625114221E9, 2021-08-18 00:53:45.114
14.0, -2423365.875, 4500000.0, -3330931.5, 4500000.0, 4500000.0, -2290054.125, 4500000.0, -2944393.125, 4500000.0, 4500000.0, 4500000.0, 4500000.0, 4500000.0, 4500000.0, 4500000.0, 4500000.0, -0.020000001415610313, 0.9780000448226929, 0.33400002121925354, 192.0, 0.0, 0.0, 0.0, 0.0, 0.0, 0.0, 0.0, 0.0, 0.0, 1.629269625114231E9, 2021-08-18 00:53:45.114
16.0, -2421873.9375, 4500000.0, -3329838.375, 4500000.0, 4500000.0, -2287516.3125, 4500000.0, -2943067.5, 4500000.0, 4500000.0, 4500000.0, 4500000.0, 4500000.0, 4500000.0, 4500000.0, 4500000.0, -0.014000000432133675, 0.9660000205039978, 0.3360000252723694, 192.0, 127.5, 72.0, 15.0, 24.0, 5.0, 64.0, 0.0, 0.0, 0.0, 1.629269625114242E9, 2021-08-18 00:53:45.114
18.0, -2423174.8125, 4500000.0, -3330836.625, 4500000.0, 4500000.0, -2289991.875, 4500000.0, -2944190.8125, 4500000.0, 4500000.0, 4500000.0, 4500000.0, 4500000.0, 4500000.0, 4500000.0, 4500000.0, -0.014000000432133675, 0.9660000205039978, 0.3360000252723694, 192.0, 0.0, 0.0, 0.0, 0.0, 0.0, 0.0, 0.0, 0.0, 0.0, 1.6292696251142664E9, 2021-08-18 00:53:45.114
20.0, -2422097.25, 4500000.0, -3330045.0, 4500000.0, 4500000.0, -2288220.0, 4500000.0, -2943477.375, 4500000.0, 4500000.0, 4500000.0, 4500000.0, 4500000.0, 4500000.0, 4500000.0, 4500000.0, -0.014000000432133675, 0.9660000205039978, 0.3360000252723694, 192.0, 0.0, 0.0, 0.0, 0.0, 0.0, 0.0, 0.0, 0.0, 0.0, 1.629269625114276E9, 2021-08-18 00:53:45.114
22.0, -2423712.375, 4500000.0, -3331105.875, 4500000.0, 4500000.0, -2290264.5, 4500000.0, -2944376.4375, 4500000.0, 4500000.0, 4500000.0, 4500000.0, 4500000.0, 4500000.0, 4500000.0, 4500000.0, -0.014000000432133675, 0.9660000205039978, 0.3360000252723694, 192.0, 0.0, 0.0, 0.0, 0.0, 0.0, 0.0, 0.0, 0.0, 0.0, 1.629269625114288E9, 2021-08-18 00:53:45.114
24.0, -2422026.9375, 4500000.0, -3330069.375, 4500000.0, 4500000.0, -2288759.25, 4500000.0, -2943103.5, 4500000.0, 4500000.0, 4500000.0, 4500000.0, 4500000.0, 4500000.0, 4500000.0, 4500000.0, -0.017000000923871994, 0.9590000212192535, 0.3370000272989273, 192.0, 127.5, 48.0, 14.5, 96.0, 5.0, 72.0, 0.0, 0.0, 0.0, 1.6292696251142995E9, 2021-08-18 00:53:45.114
26.0, -2423300.4375, 4500000.0, -3330771.75, 4500000.0, 4500000.0, -2289867.9375, 4500000.0, -2944021.875, 4500000.0, 4500000.0, 4500000.0, 4500000.0, 4500000.0, 4500000.0, 4500000.0, 4500000.0, -0.017000000923871994, 0.9590000212192535, 0.3370000272989273, 192.0, 0.0, 0.0, 0.0, 0.0, 0.0, 0.0, 0.0, 0.0, 0.0, 1.6292696251143117E9, 2021-08-18 00:53:45.114
28.0, -2422442.0625, 4500000.0, -3330111.0, 4500000.0, 4500000.0, -2289042.9375, 4500000.0, -2943529.875, 4500000.0, 4500000.0, 4500000.0, 4500000.0, 4500000.0, 4500000.0, 4500000.0, 4500000.0, -0.017000000923871994, 0.9590000212192535, 0.3370000272989273, 192.0, 0.0, 0.0, 0.0, 0.0, 0.0, 0.0, 0.0, 0.0, 0.0, 1.62926962511432E9, 2021-08-18 00:53:45.114
30.0, -2423720.4375, 4500000.0, -3330995.25, 4500000.0, 4500000.0, -2289708.1875, 4500000.0, -2944562.0625, 4500000.0, 4500000.0, 4500000.0, 4500000.0, 4500000.0, 4500000.0, 4500000.0, 4500000.0, -0.017000000923871994, 0.9590000212192535, 0.3370000272989273, 192.0, 0.0, 0.0, 0.0, 0.0, 0.0, 0.0, 0.0, 0.0, 0.0, 1.6292696251143312E9, 2021-08-18 00:53:45.114
32.0, -2422858.3125, 4500000.0, -3330197.25, 4500000.0, 4500000.0, -2289471.0, 4500000.0, -2944107.75, 4500000.0, 4500000.0, 4500000.0, 4500000.0, 4500000.0, 4500000.0, 4500000.0, 4500000.0, -0.017000000923871994, 0.9590000212192535, 0.3370000272989273, 192.0, 0.0, 0.0, 0.0, 0.0, 0.0, 0.0, 0.0, 0.0, 0.0, 1.6292696251143432E9, 2021-08-18 00:53:45.114
34.0, -2423314.3125, 4500000.0, -3330439.125, 4500000.0, 4500000.0, -2289088.5, 4500000.0, -2944426.875, 4500000.0, 4500000.0, 4500000.0, 4500000.0, 4500000.0, 4500000.0, 4500000.0, 4500000.0, -0.020500000566244125, 0.9565000385046005, 0.33750002831220627, 192.0, 127.5, 32.0, 14.5, 104.0, 5.0, 72.0, 0.0, 0.0, 0.0, 1.629269625114356E9, 2021-08-18 00:53:45.114
36.0, -2423001.5625, 4500000.0, -3330103.5, 4500000.0, 4500000.0, -2289624.375, 4500000.0, -2944326.5625, 4500000.0, 4500000.0, 4500000.0, 4500000.0, 4500000.0, 4500000.0, 4500000.0, 4500000.0, -0.020500000566244125, 0.9565000385046005, 0.33750002831220627, 192.0, 0.0, 0.0, 0.0, 0.0, 0.0, 0.0, 0.0, 0.0, 0.0, 1.6292696251143668E9, 2021-08-18 00:53:45.114
38.0, -2422881.375, 4500000.0, -3330053.25, 4500000.0, 4500000.0, -2288420.0625, 4500000.0, -2943918.75, 4500000.0, 4500000.0, 4500000.0, 4500000.0, 4500000.0, 4500000.0, 4500000.0, 4500000.0, -0.020500000566244125, 0.9565000385046005, 0.33750002831220627, 192.0, 0.0, 0.0, 0.0, 0.0, 0.0, 0.0, 0.0, 0.0, 0.0, 1.6292696251143768E9, 2021-08-18 00:53:45.114
40.0, -2422927.125, 4500000.0, -3330068.625, 4500000.0, 4500000.0, -2289787.5, 4500000.0, -2944307.25, 4500000.0, 4500000.0, 4500000.0, 4500000.0, 4500000.0, 4500000.0, 4500000.0, 4500000.0, -0.020500000566244125, 0.9565000385046005, 0.33750002831220627, 192.0, 0.0, 0.0, 0.0, 0.0, 0.0, 0.0, 0.0, 0.0, 0.0, 1.6292696251143901E9, 2021-08-18 00:53:45.114
42.0, -2422743.0, 4500000.0, -3330071.25, 4500000.0, 4500000.0, -2288208.1875, 4500000.0, -2943694.125, 4500000.0, 4500000.0, 4500000.0, 4500000.0, 4500000.0, 4500000.0, 4500000.0, 4500000.0, -0.020500000566244125, 0.9565000385046005, 0.33750002831220627, 192.0, 0.0, 0.0, 0.0, 0.0, 0.0, 0.0, 0.0, 0.0, 0.0, 1.6292696251144016E9, 2021-08-18 00:53:45.114
44.0, -2423091.1875, 4500000.0, -3330263.25, 4500000.0, 4500000.0, -2289984.9375, 4500000.0, -2944122.75, 4500000.0, 4500000.0, 4500000.0, 4500000.0, 4500000.0, 4500000.0, 4500000.0, 4500000.0, -0.02225000038743019, 0.9602500423789024, 0.3387500159442425, 192.0, 127.5, 32.0, 15.0, 16.0, 5.0, 80.0, 0.0, 0.0, 0.0, 1.6292696251144152E9, 2021-08-18 00:53:45.114
46.0, -2422866.375, 4500000.0, -3330343.125, 4500000.0, 4500000.0, -2288162.625, 4500000.0, -2943466.6875, 4500000.0, 4500000.0, 4500000.0, 4500000.0, 4500000.0, 4500000.0, 4500000.0, 4500000.0, -0.02225000038743019, 0.9602500423789024, 0.3387500159442425, 192.0, 0.0, 0.0, 0.0, 0.0, 0.0, 0.0, 0.0, 0.0, 0.0, 1.6292696251144252E9, 2021-08-18 00:53:45.114
48.0, -2423550.9375, 4500000.0, -3330709.5, 4500000.0, 4500000.0, -2290369.125, 4500000.0, -2944373.25, 4500000.0, 4500000.0, 4500000.0, 4500000.0, 4500000.0, 4500000.0, 4500000.0, 4500000.0, -0.02225000038743019, 0.9602500423789024, 0.3387500159442425, 192.0, 0.0, 0.0, 0.0, 0.0, 0.0, 0.0, 0.0, 0.0, 0.0, 1.6292696251144347E9, 2021-08-18 00:53:45.114
50.0, -2422599.75, 4500000.0, -3330100.5, 4500000.0, 4500000.0, -2287764.0, 4500000.0, -2943535.875, 4500000.0, 4500000.0, 4500000.0, 4500000.0, 4500000.0, 4500000.0, 4500000.0, 4500000.0, -0.02225000038743019, 0.9602500423789024, 0.3387500159442425, 192.0, 0.0, 0.0, 0.0, 0.0, 0.0, 0.0, 0.0, 0.0, 0.0, 1.6292696251144464E9, 2021-08-18 00:53:45.114
52.0, -2423595.0, 4500000.0, -3330647.25, 4500000.0, 4500000.0, -2290347.0, 4500000.0, -2944469.8125, 4500000.0, 4500000.0, 4500000.0, 4500000.0, 4500000.0, 4500000.0, 4500000.0, 4500000.0, -0.02225000038743019, 0.9602500423789024, 0.3387500159442425, 192.0, 0.0, 0.0, 0.0, 0.0, 0.0, 0.0, 0.0, 0.0, 0.0, 1.6292696251144712E9, 2021-08-18 00:53:45.114
54.0, -2422701.1875, 4500000.0, -3330350.625, 4500000.0, 4500000.0, -2288097.1875, 4500000.0, -2943548.0625, 4500000.0, 4500000.0, 4500000.0, 4500000.0, 4500000.0, 4500000.0, 4500000.0, 4500000.0, -0.026125000789761543, 0.9661250524222851, 0.3413750138133764, 192.0, 127.5, 8.0, 15.0, 48.0, 5.0, 96.0, 0.0, 0.0, 0.0, 1.6292696251144822E9, 2021-08-18 00:53:45.114
56.0, -2423643.1875, 4500000.0, -3331168.125, 4500000.0, 4500000.0, -2290940.4375, 4500000.0, -2944496.625, 4500000.0, 4500000.0, 4500000.0, 4500000.0, 4500000.0, 4500000.0, 4500000.0, 4500000.0, -0.026125000789761543, 0.9661250524222851, 0.3413750138133764, 192.0, 0.0, 0.0, 0.0, 0.0, 0.0, 0.0, 0.0, 0.0, 0.0, 1.6292696251144955E9, 2021-08-18 00:53:45.114
58.0, -2421747.375, 4500000.0, -3330387.75, 4500000.0, 4500000.0, -2288208.75, 4500000.0, -2942927.4375, 4500000.0, 4500000.0, 4500000.0, 4500000.0, 4500000.0, 4500000.0, 4500000.0, 4500000.0, -0.026125000789761543, 0.9661250524222851, 0.3413750138133764, 192.0, 0.0, 0.0, 0.0, 0.0, 0.0, 0.0, 0.0, 0.0, 0.0, 1.6292696251145067E9, 2021-08-18 00:53:45.114
60.0, -2422820.8125, 4500000.0, -3331158.375, 4500000.0, 4500000.0, -2290847.625, 4500000.0, -2943996.5625, 4500000.0, 4500000.0, 4500000.0, 4500000.0, 4500000.0, 4500000.0, 4500000.0, 4500000.0, -0.026125000789761543, 0.9661250524222851, 0.3413750138133764, 192.0, 0.0, 0.0, 0.0, 0.0, 0.0, 0.0, 0.0, 0.0, 0.0, 1.6292696251145177E9, 2021-08-18 00:53:45.114
62.0, -2421739.3125, 4500000.0, -3330345.375, 4500000.0, 4500000.0, -2288343.9375, 4500000.0, -2942872.3125, 4500000.0, 4500000.0, 4500000.0, 4500000.0, 4500000.0, 4500000.0, 4500000.0, 4500000.0, -0.026125000789761543, 0.9661250524222851, 0.3413750138133764, 192.0, 0.0, 0.0, 0.0, 0.0, 0.0, 0.0, 0.0, 0.0, 0.0, 1.6292696251145258E9, 2021-08-18 00:53:45.114
64.0, -2423437.6875, 4500000.0, -3331192.125, 4500000.0, 4500000.0, -2290724.625, 4500000.0, -2944134.5625, 4500000.0, 4500000.0, 4500000.0, 4500000.0, 4500000.0, 4500000.0, 4500000.0, 4500000.0, -0.033062501810491085, 0.9600625541061163, 0.3436875147745013, 192.0, 127.0, 96.0, 14.5, 104.0, 5.0, 104.0, 0.0, 0.0, 0.0, 1.6292696255941322E9, 2021-08-18 00:53:45.594
66.0, -2421938.4375, 4500000.0, -3330150.0, 4500000.0, 4500000.0, -2288354.25, 4500000.0, -2942871.75, 4500000.0, 4500000.0, 4500000.0, 4500000.0, 4500000.0, 4500000.0, 4500000.0, 4500000.0, -0.033062501810491085, 0.9600625541061163, 0.3436875147745013, 192.0, 0.0, 0.0, 0.0, 0.0, 0.0, 0.0, 0.0, 0.0, 0.0, 1.62926962559414E9, 2021-08-18 00:53:45.594
68.0, -2423616.375, 4500000.0, -3331357.125, 4500000.0, 4500000.0, -2290887.1875, 4500000.0, -2944366.6875, 4500000.0, 4500000.0, 4500000.0, 4500000.0, 4500000.0, 4500000.0, 4500000.0, 4500000.0, -0.033062501810491085, 0.9600625541061163, 0.3436875147745013, 192.0, 0.0, 0.0, 0.0, 0.0, 0.0, 0.0, 0.0, 0.0, 0.0, 1.6292696255941467E9, 2021-08-18 00:53:45.594
70.0, -2422069.875, 4500000.0, -3330270.0, 4500000.0, 4500000.0, -2288852.0625, 4500000.0, -2943085.125, 4500000.0, 4500000.0, 4500000.0, 4500000.0, 4500000.0, 4500000.0, 4500000.0, 4500000.0, -0.033062501810491085, 0.9600625541061163, 0.3436875147745013, 192.0, 0.0, 0.0, 0.0, 0.0, 0.0, 0.0, 0.0, 0.0, 0.0, 1.6292696255941541E9, 2021-08-18 00:53:45.594
72.0, -2423546.0625, 4500000.0, -3331186.875, 4500000.0, 4500000.0, -2290576.6875, 4500000.0, -2944251.9375, 4500000.0, 4500000.0, 4500000.0, 4500000.0, 4500000.0, 4500000.0, 4500000.0, 4500000.0, -0.033062501810491085, 0.9600625541061163, 0.3436875147745013, 192.0, 0.0, 0.0, 0.0, 0.0, 0.0, 0.0, 0.0, 0.0, 0.0, 1.629269625594161E9, 2021-08-18 00:53:45.594
74.0, -2422702.875, 4500000.0, -3330622.125, 4500000.0, 4500000.0, -2289653.4375, 4500000.0, -2943776.625, 4500000.0, 4500000.0, 4500000.0, 4500000.0, 4500000.0, 4500000.0, 4500000.0, 4500000.0, -0.0560000017285347, 0.9380000233650208, 0.3440000116825104, 192.0, 127.0, 32.0, 14.5, 40.0, 5.0, 96.0, 0.0, 0.0, 0.0, 1.6292696255941677E9, 2021-08-18 00:53:45.594
76.0, -2423576.625, 4500000.0, -3331258.125, 4500000.0, 4500000.0, -2290511.25, 4500000.0, -2944296.0, 4500000.0, 4500000.0, 4500000.0, 4500000.0, 4500000.0, 4500000.0, 4500000.0, 4500000.0, -0.0560000017285347, 0.9380000233650208, 0.3440000116825104, 192.0, 0.0, 0.0, 0.0, 0.0, 0.0, 0.0, 0.0, 0.0, 0.0, 1.6292696255941749E9, 2021-08-18 00:53:45.594
78.0, -2422739.8125, 4500000.0, -3330642.0, 4500000.0, 4500000.0, -2289886.3125, 4500000.0, -2943620.0625, 4500000.0, 4500000.0, 4500000.0, 4500000.0, 4500000.0, 4500000.0, 4500000.0, 4500000.0, -0.0560000017285347, 0.9380000233650208, 0.3440000116825104, 192.0, 0.0, 0.0, 0.0, 0.0, 0.0, 0.0, 0.0, 0.0, 0.0, 1.6292696255941815E9, 2021-08-18 00:53:45.594
80.0, -2423534.8125, 4500000.0, -3331050.0, 4500000.0, 4500000.0, -2289866.4375, 4500000.0, -2944204.125, 4500000.0, 4500000.0, 4500000.0, 4500000.0, 4500000.0, 4500000.0, 4500000.0, 4500000.0, -0.0560000017285347, 0.9380000233650208, 0.3440000116825104, 192.0, 0.0, 0.0, 0.0, 0.0, 0.0, 0.0, 0.0, 0.0, 0.0, 1.629269625594188E9, 2021-08-18 00:53:45.594
82.0, -2422799.4375, 4500000.0, -3330367.875, 4500000.0, 4500000.0, -2289671.625, 4500000.0, -2943720.9375, 4500000.0, 4500000.0, 4500000.0, 4500000.0, 4500000.0, 4500000.0, 4500000.0, 4500000.0, -0.0560000017285347, 0.9380000233650208, 0.3440000116825104, 192.0, 0.0, 0.0, 0.0, 0.0, 0.0, 0.0, 0.0, 0.0, 0.0, 1.6292696255941951E9, 2021-08-18 00:53:45.594
84.0, -2423024.0625, 4500000.0, -3330542.25, 4500000.0, 4500000.0, -2288898.75, 4500000.0, -2943703.125, 4500000.0, 4500000.0, 4500000.0, 4500000.0, 4500000.0, 4500000.0, 4500000.0, 4500000.0, -0.05000000074505806, 0.9280000329017639, 0.35200002789497375, 192.0, 127.0, 56.0, 14.5, 0.0, 5.5, 0.0, 0.0, 0.0, 0.0, 1.6292696255942025E9, 2021-08-18 00:53:45.594
86.0, -2423284.3125, 4500000.0, -3330415.125, 4500000.0, 4500000.0, -2289773.0625, 4500000.0, -2943790.125, 4500000.0, 4500000.0, 4500000.0, 4500000.0, 4500000.0, 4500000.0, 4500000.0, 4500000.0, -0.05000000074505806, 0.9280000329017639, 0.35200002789497375, 192.0, 0.0, 0.0, 0.0, 0.0, 0.0, 0.0, 0.0, 0.0, 0.0, 1.629269625594218E9, 2021-08-18 00:53:45.594
88.0, -2422878.1875, 4500000.0, -3330184.5, 4500000.0, 4500000.0, -2288196.375, 4500000.0, -2943410.8125, 4500000.0, 4500000.0, 4500000.0, 4500000.0, 4500000.0, 4500000.0, 4500000.0, 4500000.0, -0.05000000074505806, 0.9280000329017639, 0.35200002789497375, 192.0, 0.0, 0.0, 0.0, 0.0, 0.0, 0.0, 0.0, 0.0, 0.0, 1.6292696255942245E9, 2021-08-18 00:53:45.594
90.0, -2423121.1875, 4500000.0, -3330398.25, 4500000.0, 4500000.0, -2289878.25, 4500000.0, -2943873.75, 4500000.0, 4500000.0, 4500000.0, 4500000.0, 4500000.0, 4500000.0, 4500000.0, 4500000.0, -0.05000000074505806, 0.9280000329017639, 0.35200002789497375, 192.0, 0.0, 0.0, 0.0, 0.0, 0.0, 0.0, 0.0, 0.0, 0.0, 1.6292696255942318E9, 2021-08-18 00:53:45.594
92.0, -2422857.375, 4500000.0, -3330161.25, 4500000.0, 4500000.0, -2287945.3125, 4500000.0, -2943245.0625, 4500000.0, 4500000.0, 4500000.0, 4500000.0, 4500000.0, 4500000.0, 4500000.0, 4500000.0, -0.05000000074505806, 0.9280000329017639, 0.35200002789497375, 192.0, 0.0, 0.0, 0.0, 0.0, 0.0, 0.0, 0.0, 0.0, 0.0, 1.6292696255942383E9, 2021-08-18 00:53:45.594
94.0, -2423855.625, 4500000.0, -3330622.5, 4500000.0, 4500000.0, -2290242.9375, 4500000.0, -2944328.0625, 4500000.0, 4500000.0, 4500000.0, 4500000.0, 4500000.0, 4500000.0, 4500000.0, 4500000.0, -0.04200000315904617, 0.9300000667572021, 0.35200002789497375, 192.0, 127.0, 88.0, 14.5, 8.0, 5.5, 0.0, 0.0, 0.0, 0.0, 1.629269625594245E9, 2021-08-18 00:53:45.594
96.0, -2423136.1875, 4500000.0, -3330098.625, 4500000.0, 4500000.0, -2287846.125, 4500000.0, -2943397.875, 4500000.0, 4500000.0, 4500000.0, 4500000.0, 4500000.0, 4500000.0, 4500000.0, 4500000.0, -0.04200000315904617, 0.9300000667572021, 0.35200002789497375, 192.0, 0.0, 0.0, 0.0, 0.0, 0.0, 0.0, 0.0, 0.0, 0.0, 1.6292696255942516E9, 2021-08-18 00:53:45.594
98.0, -2424028.3125, 4500000.0, -3330759.0, 4500000.0, 4500000.0, -2290598.0625, 4500000.0, -2944462.3125, 4500000.0, 4500000.0, 4500000.0, 4500000.0, 4500000.0, 4500000.0, 4500000.0, 4500000.0, -0.04200000315904617, 0.9300000667572021, 0.35200002789497375, 192.0, 0.0, 0.0, 0.0, 0.0, 0.0, 0.0, 0.0, 0.0, 0.0, 1.6292696255942583E9, 2021-08-18 00:53:45.594
100.0, -2422607.8125, 4500000.0, -3329757.75, 4500000.0, 4500000.0, -2287440.0, 4500000.0, -2943164.625, 4500000.0, 4500000.0, 4500000.0, 4500000.0, 4500000.0, 4500000.0, 4500000.0, 4500000.0, -0.04200000315904617, 0.9300000667572021, 0.35200002789497375, 192.0, 0.0, 0.0, 0.0, 0.0, 0.0, 0.0, 0.0, 0.0, 0.0, 1.6292696255942652E9, 2021-08-18 00:53:45.594
102.0, -2423850.75, 4500000.0, -3330617.25, 4500000.0, 4500000.0, -2290153.875, 4500000.0, -2944420.875, 4500000.0, 4500000.0, 4500000.0, 4500000.0, 4500000.0, 4500000.0, 4500000.0, 4500000.0, -0.04200000315904617, 0.9300000667572021, 0.35200002789497375, 192.0, 0.0, 0.0, 0.0, 0.0, 0.0, 0.0, 0.0, 0.0, 0.0, 1.629269625594272E9, 2021-08-18 00:53:45.594
104.0, -2422536.5625, 4500000.0, -3329733.75, 4500000.0, 4500000.0, -2287007.25, 4500000.0, -2942906.0625, 4500000.0, 4500000.0, 4500000.0, 4500000.0, 4500000.0, 4500000.0, 4500000.0, 4500000.0, -0.030000001192092896, 0.9500000476837158, 0.3580000102519989, 192.0, 127.5, 8.0, 14.5, 88.0, 5.5, 24.0, 0.0, 0.0, 0.0, 1.6292696255942783E9, 2021-08-18 00:53:45.594
106.0, -2423448.0, 4500000.0, -3330498.0, 4500000.0, 4500000.0, -2289688.3125, 4500000.0, -2943696.1875, 4500000.0, 4500000.0, 4500000.0, 4500000.0, 4500000.0, 4500000.0, 4500000.0, 4500000.0, -0.030000001192092896, 0.9500000476837158, 0.3580000102519989, 192.0, 0.0, 0.0, 0.0, 0.0, 0.0, 0.0, 0.0, 0.0, 0.0, 1.629269625594285E9, 2021-08-18 00:53:45.594
108.0, -2422449.0, 4500000.0, -3329938.5, 4500000.0, 4500000.0, -2287312.3125, 4500000.0, -2943027.1875, 4500000.0, 4500000.0, 4500000.0, 4500000.0, 4500000.0, 4500000.0, 4500000.0, 4500000.0, -0.030000001192092896, 0.9500000476837158, 0.3580000102519989, 192.0, 0.0, 0.0, 0.0, 0.0, 0.0, 0.0, 0.0, 0.0, 0.0, 1.6292696255942917E9, 2021-08-18 00:53:45.594
110.0, -2423889.9375, 4500000.0, -3331036.125, 4500000.0, 4500000.0, -2290216.6875, 4500000.0, -2944113.0, 4500000.0, 4500000.0, 4500000.0, 4500000.0, 4500000.0, 4500000.0, 4500000.0, 4500000.0, -0.030000001192092896, 0.9500000476837158, 0.3580000102519989, 192.0, 0.0, 0.0, 0.0, 0.0, 0.0, 0.0, 0.0, 0.0, 0.0, 1.6292696255942981E9, 2021-08-18 00:53:45.594
112.0, -2422452.375, 4500000.0, -3329999.625, 4500000.0, 4500000.0, -2287611.75, 4500000.0, -2942923.125, 4500000.0, 4500000.0, 4500000.0, 4500000.0, 4500000.0, 4500000.0, 4500000.0, 4500000.0, -0.03100000135600567, 0.9460000395774841, 0.3620000183582306, 192.0, 127.5, 0.0, 14.5, 56.0, 5.5, 56.0, 0.0, 0.0, 0.0, 1.6292696255943048E9, 2021-08-18 00:53:45.594
114.0, -2424122.25, 4500000.0, -3331038.375, 4500000.0, 4500000.0, -2290145.4375, 4500000.0, -2944409.625, 4500000.0, 4500000.0, 4500000.0, 4500000.0, 4500000.0, 4500000.0, 4500000.0, 4500000.0, -0.03100000135600567, 0.9460000395774841, 0.3620000183582306, 192.0, 0.0, 0.0, 0.0, 0.0, 0.0, 0.0, 0.0, 0.0, 0.0, 1.6292696255943115E9, 2021-08-18 00:53:45.594
116.0, -2422244.625, 4500000.0, -3329924.625, 4500000.0, 4500000.0, -2287821.5625, 4500000.0, -2942783.8125, 4500000.0, 4500000.0, 4500000.0, 4500000.0, 4500000.0, 4500000.0, 4500000.0, 4500000.0, -0.03100000135600567, 0.9460000395774841, 0.3620000183582306, 192.0, 0.0, 0.0, 0.0, 0.0, 0.0, 0.0, 0.0, 0.0, 0.0, 1.629269625594318E9, 2021-08-18 00:53:45.594
118.0, -2423745.5625, 4500000.0, -3331143.0, 4500000.0, 4500000.0, -2290185.0, 4500000.0, -2944314.1875, 4500000.0, 4500000.0, 4500000.0, 4500000.0, 4500000.0, 4500000.0, 4500000.0, 4500000.0, -0.03100000135600567, 0.9460000395774841, 0.3620000183582306, 192.0, 0.0, 0.0, 0.0, 0.0, 0.0, 0.0, 0.0, 0.0, 0.0, 1.6292696255943248E9, 2021-08-18 00:53:45.594
120.0, -2422675.5, 4500000.0, -3330441.375, 4500000.0, 4500000.0, -2288757.0, 4500000.0, -2943467.0625, 4500000.0, 4500000.0, 4500000.0, 4500000.0, 4500000.0, 4500000.0, 4500000.0, 4500000.0, -0.03100000135600567, 0.9460000395774841, 0.3620000183582306, 192.0, 0.0, 0.0, 0.0, 0.0, 0.0, 0.0, 0.0, 0.0, 0.0, 1.6292696255943332E9, 2021-08-18 00:53:45.594
122.0, -2423435.0625, 4500000.0, -3330885.0, 4500000.0, 4500000.0, -2289954.9375, 4500000.0, -2944101.1875, 4500000.0, 4500000.0, 4500000.0, 4500000.0, 4500000.0, 4500000.0, 4500000.0, 4500000.0, -0.03250000160187483, 0.9410000443458557, 0.3620000183582306, 192.0, 127.0, 120.0, 14.5, 32.0, 5.5, 40.0, 0.0, 0.0, 0.0, 1.62926962559434E9, 2021-08-18 00:53:45.594
124.0, -2422263.9375, 4500000.0, -3330026.25, 4500000.0, 4500000.0, -2288880.9375, 4500000.0, -2943392.0625, 4500000.0, 4500000.0, 4500000.0, 4500000.0, 4500000.0, 4500000.0, 4500000.0, 4500000.0, -0.03250000160187483, 0.9410000443458557, 0.3620000183582306, 192.0, 0.0, 0.0, 0.0, 0.0, 0.0, 0.0, 0.0, 0.0, 0.0, 1.6292696255943484E9, 2021-08-18 00:53:45.594
126.0, -2423201.625, 4500000.0, -3330704.25, 4500000.0, 4500000.0, -2289425.4375, 4500000.0, -2943884.4375, 4500000.0, 4500000.0, 4500000.0, 4500000.0, 4500000.0, 4500000.0, 4500000.0, 4500000.0, -0.03250000160187483, 0.9410000443458557, 0.3620000183582306, 192.0, 0.0, 0.0, 0.0, 0.0, 0.0, 0.0, 0.0, 0.0, 0.0, 1.6292696255943549E9, 2021-08-18 00:53:45.594
128.0, -2422696.3125, 4500000.0, -3330383.25, 4500000.0, 4500000.0, -2289273.1875, 4500000.0, -2943446.25, 4500000.0, 4500000.0, 4500000.0, 4500000.0, 4500000.0, 4500000.0, 4500000.0, 4500000.0, -0.03250000160187483, 0.9410000443458557, 0.3620000183582306, 192.0, 0.0, 0.0, 0.0, 0.0, 0.0, 0.0, 0.0, 0.0, 0.0, 1.6292696255943615E9, 2021-08-18 00:53:45.594
130.0, -2423226.375, 4500000.0, -3330851.625, 4500000.0, 4500000.0, -2289245.8125, 4500000.0, -2943934.875, 4500000.0, 4500000.0, 4500000.0, 4500000.0, 4500000.0, 4500000.0, 4500000.0, 4500000.0, -0.03250000160187483, 0.9410000443458557, 0.3620000183582306, 192.0, 0.0, 0.0, 0.0, 0.0, 0.0, 0.0, 0.0, 0.0, 0.0, 1.629269625594368E9, 2021-08-18 00:53:45.594
132.0, -2423157.1875, 4500000.0, -3330799.125, 4500000.0, 4500000.0, -2290012.875, 4500000.0, -2944068.0, 4500000.0, 4500000.0, 4500000.0, 4500000.0, 4500000.0, 4500000.0, 4500000.0, 4500000.0, -0.03425000188872218, 0.9415000379085541, 0.36500002443790436, 192.0, 127.0, 112.0, 14.5, 56.0, 5.5, 64.0, 0.0, 0.0, 0.0, 1.6292696255943756E9, 2021-08-18 00:53:45.594
134.0, -2423116.875, 4500000.0, -3330740.25, 4500000.0, 4500000.0, -2288973.1875, 4500000.0, -2944055.0625, 4500000.0, 4500000.0, 4500000.0, 4500000.0, 4500000.0, 4500000.0, 4500000.0, 4500000.0, -0.03425000188872218, 0.9415000379085541, 0.36500002443790436, 192.0, 0.0, 0.0, 0.0, 0.0, 0.0, 0.0, 0.0, 0.0, 0.0, 1.6292696255943823E9, 2021-08-18 00:53:45.594
136.0, -2423044.5, 4500000.0, -3330635.625, 4500000.0, 4500000.0, -2290081.5, 4500000.0, -2943981.5625, 4500000.0, 4500000.0, 4500000.0, 4500000.0, 4500000.0, 4500000.0, 4500000.0, 4500000.0, -0.03425000188872218, 0.9415000379085541, 0.36500002443790436, 192.0, 0.0, 0.0, 0.0, 0.0, 0.0, 0.0, 0.0, 0.0, 0.0, 1.6292696255943892E9, 2021-08-18 00:53:45.594
138.0, -2422608.375, 4500000.0, -3330450.75, 4500000.0, 4500000.0, -2288499.5625, 4500000.0, -2943382.875, 4500000.0, 4500000.0, 4500000.0, 4500000.0, 4500000.0, 4500000.0, 4500000.0, 4500000.0, -0.03425000188872218, 0.9415000379085541, 0.36500002443790436, 192.0, 0.0, 0.0, 0.0, 0.0, 0.0, 0.0, 0.0, 0.0, 0.0, 1.6292696255943959E9, 2021-08-18 00:53:45.594
140.0, -2423221.5, 4500000.0, -3330859.125, 4500000.0, 4500000.0, -2290460.25, 4500000.0, -2944231.125, 4500000.0, 4500000.0, 4500000.0, 4500000.0, 4500000.0, 4500000.0, 4500000.0, 4500000.0, -0.03425000188872218, 0.9415000379085541, 0.36500002443790436, 192.0, 0.0, 0.0, 0.0, 0.0, 0.0, 0.0, 0.0, 0.0, 0.0, 1.6292696255944023E9, 2021-08-18 00:53:45.594
142.0, -2422780.125, 4500000.0, -3330712.875, 4500000.0, 4500000.0, -2288558.0625, 4500000.0, -2943694.6875, 4500000.0, 4500000.0, 4500000.0, 4500000.0, 4500000.0, 4500000.0, 4500000.0, 4500000.0, -0.03512500203214586, 0.9427500516176224, 0.3655000254511833, 192.0, 127.0, 112.0, 14.5, 64.0, 5.5, 56.0, 0.0, 0.0, 0.0, 1.629269625594409E9, 2021-08-18 00:53:45.594
144.0, -2423487.0, 4500000.0, -3330947.625, 4500000.0, 4500000.0, -2290682.25, 4500000.0, -2944640.8125, 4500000.0, 4500000.0, 4500000.0, 4500000.0, 4500000.0, 4500000.0, 4500000.0, 4500000.0, -0.03512500203214586, 0.9427500516176224, 0.3655000254511833, 192.0, 0.0, 0.0, 0.0, 0.0, 0.0, 0.0, 0.0, 0.0, 0.0, 1.6292696255944157E9, 2021-08-18 00:53:45.594
146.0, -2421999.5625, 4500000.0, -3329944.125, 4500000.0, 4500000.0, -2287650.9375, 4500000.0, -2942619.0, 4500000.0, 4500000.0, 4500000.0, 4500000.0, 4500000.0, 4500000.0, 4500000.0, 4500000.0, -0.03512500203214586, 0.9427500516176224, 0.3655000254511833, 192.0, 0.0, 0.0, 0.0, 0.0, 0.0, 0.0, 0.0, 0.0, 0.0, 1.629269625594422E9, 2021-08-18 00:53:45.594
148.0, -2423396.4375, 4500000.0, -3331218.75, 4500000.0, 4500000.0, -2290782.5625, 4500000.0, -2944203.1875, 4500000.0, 4500000.0, 4500000.0, 4500000.0, 4500000.0, 4500000.0, 4500000.0, 4500000.0, -0.03512500203214586, 0.9427500516176224, 0.3655000254511833, 192.0, 0.0, 0.0, 0.0, 0.0, 0.0, 0.0, 0.0, 0.0, 0.0, 1.6292696255944288E9, 2021-08-18 00:53:45.594
150.0, -2422373.4375, 4500000.0, -3330520.125, 4500000.0, 4500000.0, -2287958.8125, 4500000.0, -2943255.75, 4500000.0, 4500000.0, 4500000.0, 4500000.0, 4500000.0, 4500000.0, 4500000.0, 4500000.0, -0.03512500203214586, 0.9427500516176224, 0.3655000254511833, 192.0, 0.0, 0.0, 0.0, 0.0, 0.0, 0.0, 0.0, 0.0, 0.0, 1.6292696255944355E9, 2021-08-18 00:53:45.594
152.0, -2423818.6875, 4500000.0, -3331572.0, 4500000.0, 4500000.0, -2291021.8125, 4500000.0, -2944659.75, 4500000.0, 4500000.0, 4500000.0, 4500000.0, 4500000.0, 4500000.0, 4500000.0, 4500000.0, -0.029562501120381057, 0.9483750537037849, 0.36375002190470695, 192.0, 127.5, 32.0, 14.5, 104.0, 5.5, 40.0, 0.0, 0.0, 0.0, 1.629269625594442E9, 2021-08-18 00:53:45.594
154.0, -2422303.125, 4500000.0, -3330293.625, 4500000.0, 4500000.0, -2287786.6875, 4500000.0, -2943118.5, 4500000.0, 4500000.0, 4500000.0, 4500000.0, 4500000.0, 4500000.0, 4500000.0, 4500000.0, -0.029562501120381057, 0.9483750537037849, 0.36375002190470695, 192.0, 0.0, 0.0, 0.0, 0.0, 0.0, 0.0, 0.0, 0.0, 0.0, 1.6292696255944505E9, 2021-08-18 00:53:45.594
156.0, -2423699.0625, 4500000.0, -3331206.75, 4500000.0, 4500000.0, -2290671.0, 4500000.0, -2944234.875, 4500000.0, 4500000.0, 4500000.0, 4500000.0, 4500000.0, 4500000.0, 4500000.0, 4500000.0, -0.029562501120381057, 0.9483750537037849, 0.36375002190470695, 192.0, 0.0, 0.0, 0.0, 0.0, 0.0, 0.0, 0.0, 0.0, 0.0, 1.6292696255944571E9, 2021-08-18 00:53:45.594
158.0, -2422342.875, 4500000.0, -3330172.125, 4500000.0, 4500000.0, -2287849.875, 4500000.0, -2942977.875, 4500000.0, 4500000.0, 4500000.0, 4500000.0, 4500000.0, 4500000.0, 4500000.0, 4500000.0, -0.029562501120381057, 0.9483750537037849, 0.36375002190470695, 192.0, 0.0, 0.0, 0.0, 0.0, 0.0, 0.0, 0.0, 0.0, 0.0, 1.6292696255944636E9, 2021-08-18 00:53:45.594
160.0, -2423334.75, 4500000.0, -3330900.375, 4500000.0, 4500000.0, -2290144.3125, 4500000.0, -2943906.0, 4500000.0, 4500000.0, 4500000.0, 4500000.0, 4500000.0, 4500000.0, 4500000.0, 4500000.0, -0.029562501120381057, 0.9483750537037849, 0.36375002190470695, 192.0, 0.0, 0.0, 0.0, 0.0, 0.0, 0.0, 0.0, 0.0, 0.0, 1.6292696255944705E9, 2021-08-18 00:53:45.594
162.0, -2422260.1875, 4500000.0, -3330296.25, 4500000.0, 4500000.0, -2288164.3125, 4500000.0, -2943268.6875, 4500000.0, 4500000.0, 4500000.0, 4500000.0, 4500000.0, 4500000.0, 4500000.0, 4500000.0, -0.01600000075995922, 0.9520000219345093, 0.3660000264644623, 192.0, 127.5, 64.0, 14.5, 96.0, 5.5, 56.0, 0.0, 0.0, 0.0, 1.6292696255944767E9, 2021-08-18 00:53:45.594
164.0, -2423595.0, 4500000.0, -3331377.0, 4500000.0, 4500000.0, -2290466.0625, 4500000.0, -2944391.4375, 4500000.0, 4500000.0, 4500000.0, 4500000.0, 4500000.0, 4500000.0, 4500000.0, 4500000.0, -0.01600000075995922, 0.9520000219345093, 0.3660000264644623, 192.0, 0.0, 0.0, 0.0, 0.0, 0.0, 0.0, 0.0, 0.0, 0.0, 1.6292696255944836E9, 2021-08-18 00:53:45.594
166.0, -2422569.75, 4500000.0, -3330640.875, 4500000.0, 4500000.0, -2288550.0, 4500000.0, -2943344.8125, 4500000.0, 4500000.0, 4500000.0, 4500000.0, 4500000.0, 4500000.0, 4500000.0, 4500000.0, -0.01600000075995922, 0.9520000219345093, 0.3660000264644623, 192.0, 0.0, 0.0, 0.0, 0.0, 0.0, 0.0, 0.0, 0.0, 0.0, 1.62926962559449E9, 2021-08-18 00:53:45.594
168.0, -2423780.0625, 4500000.0, -3331488.0, 4500000.0, 4500000.0, -2290184.4375, 4500000.0, -2944212.75, 4500000.0, 4500000.0, 4500000.0, 4500000.0, 4500000.0, 4500000.0, 4500000.0, 4500000.0, -0.01600000075995922, 0.9520000219345093, 0.3660000264644623, 192.0, 0.0, 0.0, 0.0, 0.0, 0.0, 0.0, 0.0, 0.0, 0.0, 1.6292696255944967E9, 2021-08-18 00:53:45.594
170.0, -2422312.3125, 4500000.0, -3330505.125, 4500000.0, 4500000.0, -2288618.625, 4500000.0, -2943148.5, 4500000.0, 4500000.0, 4500000.0, 4500000.0, 4500000.0, 4500000.0, 4500000.0, 4500000.0, -0.01600000075995922, 0.9520000219345093, 0.3660000264644623, 192.0, 0.0, 0.0, 0.0, 0.0, 0.0, 0.0, 0.0, 0.0, 0.0, 1.6292696255945032E9, 2021-08-18 00:53:45.594
172.0, -2423580.375, 4500000.0, -3331529.25, 4500000.0, 4500000.0, -2289893.8125, 4500000.0, -2944141.5, 4500000.0, 4500000.0, 4500000.0, 4500000.0, 4500000.0, 4500000.0, 4500000.0, 4500000.0, -0.010000000707805157, 0.9380000233650208, 0.3620000183582306, 192.0, 127.5, 88.0, 14.5, 40.0, 5.5, 40.0, 0.0, 0.0, 0.0, 1.62926962559451E9, 2021-08-18 00:53:45.594
174.0, -2422468.3125, 4500000.0, -3330842.625, 4500000.0, 4500000.0, -2289025.875, 4500000.0, -2943519.75, 4500000.0, 4500000.0, 4500000.0, 4500000.0, 4500000.0, 4500000.0, 4500000.0, 4500000.0, -0.010000000707805157, 0.9380000233650208, 0.3620000183582306, 192.0, 0.0, 0.0, 0.0, 0.0, 0.0, 0.0, 0.0, 0.0, 0.0, 1.6292696255945165E9, 2021-08-18 00:53:45.594
176.0, -2423304.1875, 4500000.0, -3331501.875, 4500000.0, 4500000.0, -2289430.875, 4500000.0, -2944080.375, 4500000.0, 4500000.0, 4500000.0, 4500000.0, 4500000.0, 4500000.0, 4500000.0, 4500000.0, -0.010000000707805157, 0.9380000233650208, 0.3620000183582306, 192.0, 0.0, 0.0, 0.0, 0.0, 0.0, 0.0, 0.0, 0.0, 0.0, 1.6292696255945232E9, 2021-08-18 00:53:45.594
178.0, -2422864.3125, 4500000.0, -3331150.875, 4500000.0, 4500000.0, -2289477.9375, 4500000.0, -2943630.1875, 4500000.0, 4500000.0, 4500000.0, 4500000.0, 4500000.0, 4500000.0, 4500000.0, 4500000.0, -0.010000000707805157, 0.9380000233650208, 0.3620000183582306, 192.0, 0.0, 0.0, 0.0, 0.0, 0.0, 0.0, 0.0, 0.0, 0.0, 1.6292696255945296E9, 2021-08-18 00:53:45.594
180.0, -2423336.8125, 4500000.0, -3331592.625, 4500000.0, 4500000.0, -2289211.3125, 4500000.0, -2944028.25, 4500000.0, 4500000.0, 4500000.0, 4500000.0, 4500000.0, 4500000.0, 4500000.0, 4500000.0, -0.010000000707805157, 0.9380000233650208, 0.3620000183582306, 192.0, 0.0, 0.0, 0.0, 0.0, 0.0, 0.0, 0.0, 0.0, 0.0, 1.6292696255945363E9, 2021-08-18 00:53:45.594
182.0, -2423283.1875, 4500000.0, -3331558.125, 4500000.0, 4500000.0, -2290015.5, 4500000.0, -2944405.3125, 4500000.0, 4500000.0, 4500000.0, 4500000.0, 4500000.0, 4500000.0, 4500000.0, 4500000.0, -0.004000000189989805, 0.9420000314712524, 0.36000001430511475, 192.0, 127.5, 112.0, 14.5, 56.0, 5.5, 32.0, 0.0, 0.0, 0.0, 1.6292696255945427E9, 2021-08-18 00:53:45.594
184.0, -2423430.1875, 4500000.0, -3331562.625, 4500000.0, 4500000.0, -2289005.4375, 4500000.0, -2944250.4375, 4500000.0, 4500000.0, 4500000.0, 4500000.0, 4500000.0, 4500000.0, 4500000.0, 4500000.0, -0.004000000189989805, 0.9420000314712524, 0.36000001430511475, 192.0, 0.0, 0.0, 0.0, 0.0, 0.0, 0.0, 0.0, 0.0, 0.0, 1.6292696260753925E9, 2021-08-18 00:53:46.075
186.0, -2423224.6875, 4500000.0, -3331104.75, 4500000.0, 4500000.0, -2290029.0, 4500000.0, -2944407.0, 4500000.0, 4500000.0, 4500000.0, 4500000.0, 4500000.0, 4500000.0, 4500000.0, 4500000.0, -0.004000000189989805, 0.9420000314712524, 0.36000001430511475, 192.0, 0.0, 0.0, 0.0, 0.0, 0.0, 0.0, 0.0, 0.0, 0.0, 1.6292696260754013E9, 2021-08-18 00:53:46.075
188.0, -2423068.125, 4500000.0, -3330990.75, 4500000.0, 4500000.0, -2288285.4375, 4500000.0, -2943865.125, 4500000.0, 4500000.0, 4500000.0, 4500000.0, 4500000.0, 4500000.0, 4500000.0, 4500000.0, -0.004000000189989805, 0.9420000314712524, 0.36000001430511475, 192.0, 0.0, 0.0, 0.0, 0.0, 0.0, 0.0, 0.0, 0.0, 0.0, 1.6292696260754206E9, 2021-08-18 00:53:46.075
190.0, -2423599.6875, 4500000.0, -3331311.0, 4500000.0, 4500000.0, -2290314.375, 4500000.0, -2944582.5, 4500000.0, 4500000.0, 4500000.0, 4500000.0, 4500000.0, 4500000.0, 4500000.0, 4500000.0, -0.004000000189989805, 0.9420000314712524, 0.36000001430511475, 192.0, 0.0, 0.0, 0.0, 0.0, 0.0, 0.0, 0.0, 0.0, 0.0, 1.6292696260754285E9, 2021-08-18 00:53:46.075
192.0, -2422783.875, 4500000.0, -3330941.25, 4500000.0, 4500000.0, -2288145.0, 4500000.0, -2943697.3125, 4500000.0, 4500000.0, 4500000.0, 4500000.0, 4500000.0, 4500000.0, 4500000.0, 4500000.0, -0.010000000707805157, 0.9460000395774841, 0.3620000183582306, 192.0, 127.5, 88.0, 14.5, 72.0, 5.5, 40.0, 0.0, 0.0, 0.0, 1.6292696260754356E9, 2021-08-18 00:53:46.075
194.0, -2423878.6875, 4500000.0, -3331663.125, 4500000.0, 4500000.0, -2290753.6875, 4500000.0, -2944746.5625, 4500000.0, 4500000.0, 4500000.0, 4500000.0, 4500000.0, 4500000.0, 4500000.0, 4500000.0, -0.010000000707805157, 0.9460000395774841, 0.3620000183582306, 192.0, 0.0, 0.0, 0.0, 0.0, 0.0, 0.0, 0.0, 0.0, 0.0, 1.6292696260754423E9, 2021-08-18 00:53:46.075
196.0, -2422851.375, 4500000.0, -3330934.875, 4500000.0, 4500000.0, -2287986.1875, 4500000.0, -2943787.875, 4500000.0, 4500000.0, 4500000.0, 4500000.0, 4500000.0, 4500000.0, 4500000.0, 4500000.0, -0.010000000707805157, 0.9460000395774841, 0.3620000183582306, 192.0, 0.0, 0.0, 0.0, 0.0, 0.0, 0.0, 0.0, 0.0, 0.0, 1.6292696260754497E9, 2021-08-18 00:53:46.075
198.0, -2424055.125, 4500000.0, -3331491.75, 4500000.0, 4500000.0, -2290626.5625, 4500000.0, -2945105.4375, 4500000.0, 4500000.0, 4500000.0, 4500000.0, 4500000.0, 4500000.0, 4500000.0, 4500000.0, -0.010000000707805157, 0.9460000395774841, 0.3620000183582306, 192.0, 0.0, 0.0, 0.0, 0.0, 0.0, 0.0, 0.0, 0.0, 0.0, 1.6292696260754564E9, 2021-08-18 00:53:46.075
200.0, -2422467.9375, 4500000.0, -3330362.25, 4500000.0, 4500000.0, -2287503.9375, 4500000.0, -2943433.3125, 4500000.0, 4500000.0, 4500000.0, 4500000.0, 4500000.0, 4500000.0, 4500000.0, 4500000.0, -0.010000000707805157, 0.9460000395774841, 0.3620000183582306, 192.0, 0.0, 0.0, 0.0, 0.0, 0.0, 0.0, 0.0, 0.0, 0.0, 1.6292696260754657E9, 2021-08-18 00:53:46.075
202.0, -2423792.25, 4500000.0, -3331285.125, 4500000.0, 4500000.0, -2290466.0625, 4500000.0, -2944741.125, 4500000.0, 4500000.0, 4500000.0, 4500000.0, 4500000.0, 4500000.0, 4500000.0, 4500000.0, -0.020000001415610313, 0.9480000734329224, 0.3660000264644623, 192.0, 127.5, 48.0, 14.5, 80.0, 5.5, 56.0, 0.0, 0.0, 0.0, 1.6292696260755124E9, 2021-08-18 00:53:46.075
204.0, -2422516.125, 4500000.0, -3330469.125, 4500000.0, 4500000.0, -2287940.625, 4500000.0, -2943900.5625, 4500000.0, 4500000.0, 4500000.0, 4500000.0, 4500000.0, 4500000.0, 4500000.0, 4500000.0, -0.020000001415610313, 0.9480000734329224, 0.3660000264644623, 192.0, 0.0, 0.0, 0.0, 0.0, 0.0, 0.0, 0.0, 0.0, 0.0, 1.6292696260755234E9, 2021-08-18 00:53:46.075
206.0, -2423917.3125, 4500000.0, -3331235.625, 4500000.0, 4500000.0, -2290600.875, 4500000.0, -2944983.75, 4500000.0, 4500000.0, 4500000.0, 4500000.0, 4500000.0, 4500000.0, 4500000.0, 4500000.0, -0.020000001415610313, 0.9480000734329224, 0.3660000264644623, 192.0, 0.0, 0.0, 0.0, 0.0, 0.0, 0.0, 0.0, 0.0, 0.0, 1.6292696260755303E9, 2021-08-18 00:53:46.075
208.0, -2422559.0625, 4500000.0, -3330454.125, 4500000.0, 4500000.0, -2288209.875, 4500000.0, -2943790.125, 4500000.0, 4500000.0, 4500000.0, 4500000.0, 4500000.0, 4500000.0, 4500000.0, 4500000.0, -0.020000001415610313, 0.9480000734329224, 0.3660000264644623, 192.0, 0.0, 0.0, 0.0, 0.0, 0.0, 0.0, 0.0, 0.0, 0.0, 1.6292696260755377E9, 2021-08-18 00:53:46.075
210.0, -2423953.875, 4500000.0, -3331455.0, 4500000.0, 4500000.0, -2290854.0, 4500000.0, -2945132.8125, 4500000.0, 4500000.0, 4500000.0, 4500000.0, 4500000.0, 4500000.0, 4500000.0, 4500000.0, -0.028000001795589924, 0.9490000605583191, 0.3670000284910202, 192.0, 127.0, 112.0, 14.5, 88.0, 5.5, 64.0, 0.0, 0.0, 0.0, 1.6292696260755448E9, 2021-08-18 00:53:46.075
212.0, -2422392.1875, 4500000.0, -3330308.25, 4500000.0, 4500000.0, -2288324.0625, 4500000.0, -2943615.1875, 4500000.0, 4500000.0, 4500000.0, 4500000.0, 4500000.0, 4500000.0, 4500000.0, 4500000.0, -0.028000001795589924, 0.9490000605583191, 0.3670000284910202, 192.0, 0.0, 0.0, 0.0, 0.0, 0.0, 0.0, 0.0, 0.0, 0.0, 1.6292696260755517E9, 2021-08-18 00:53:46.075
214.0, -2423867.4375, 4500000.0, -3331433.25, 4500000.0, 4500000.0, -2290586.25, 4500000.0, -2945083.5, 4500000.0, 4500000.0, 4500000.0, 4500000.0, 4500000.0, 4500000.0, 4500000.0, 4500000.0, -0.028000001795589924, 0.9490000605583191, 0.3670000284910202, 192.0, 0.0, 0.0, 0.0, 0.0, 0.0, 0.0, 0.0, 0.0, 0.0, 1.629269626075559E9, 2021-08-18 00:53:46.075
216.0, -2422560.1875, 4500000.0, -3330578.625, 4500000.0, 4500000.0, -2288704.5, 4500000.0, -2943891.0, 4500000.0, 4500000.0, 4500000.0, 4500000.0, 4500000.0, 4500000.0, 4500000.0, 4500000.0, -0.028000001795589924, 0.9490000605583191, 0.3670000284910202, 192.0, 0.0, 0.0, 0.0, 0.0, 0.0, 0.0, 0.0, 0.0, 0.0, 1.629269626075566E9, 2021-08-18 00:53:46.075
218.0, -2424045.5625, 4500000.0, -3331751.25, 4500000.0, 4500000.0, -2290371.1875, 4500000.0, -2944756.125, 4500000.0, 4500000.0, 4500000.0, 4500000.0, 4500000.0, 4500000.0, 4500000.0, 4500000.0, -0.028000001795589924, 0.9490000605583191, 0.3670000284910202, 192.0, 0.0, 0.0, 0.0, 0.0, 0.0, 0.0, 0.0, 0.0, 0.0, 1.6292696260755901E9, 2021-08-18 00:53:46.075
220.0, -2422992.9375, 4500000.0, -3331279.125, 4500000.0, 4500000.0, -2289211.3125, 4500000.0, -2943792.1875, 4500000.0, 4500000.0, 4500000.0, 4500000.0, 4500000.0, 4500000.0, 4500000.0, 4500000.0, -0.0210000011138618, 0.9515000581741333, 0.3695000186562538, 192.0, 127.5, 72.0, 14.5, 104.0, 5.5, 80.0, 0.0, 0.0, 0.0, 1.6292696260755985E9, 2021-08-18 00:53:46.075
222.0, -2423791.3125, 4500000.0, -3331914.75, 4500000.0, 4500000.0, -2289622.875, 4500000.0, -2944552.3125, 4500000.0, 4500000.0, 4500000.0, 4500000.0, 4500000.0, 4500000.0, 4500000.0, 4500000.0, -0.0210000011138618, 0.9515000581741333, 0.3695000186562538, 192.0, 0.0, 0.0, 0.0, 0.0, 0.0, 0.0, 0.0, 0.0, 0.0, 1.6292696260756102E9, 2021-08-18 00:53:46.075
224.0, -2423123.4375, 4500000.0, -3331393.5, 4500000.0, 4500000.0, -2289023.0625, 4500000.0, -2943583.5, 4500000.0, 4500000.0, 4500000.0, 4500000.0, 4500000.0, 4500000.0, 4500000.0, 4500000.0, -0.0210000011138618, 0.9515000581741333, 0.3695000186562538, 192.0, 0.0, 0.0, 0.0, 0.0, 0.0, 0.0, 0.0, 0.0, 0.0, 1.6292696260756173E9, 2021-08-18 00:53:46.075
226.0, -2423581.5, 4500000.0, -3331687.5, 4500000.0, 4500000.0, -2288964.5625, 4500000.0, -2943970.875, 4500000.0, 4500000.0, 4500000.0, 4500000.0, 4500000.0, 4500000.0, 4500000.0, 4500000.0, -0.0210000011138618, 0.9515000581741333, 0.3695000186562538, 192.0, 0.0, 0.0, 0.0, 0.0, 0.0, 0.0, 0.0, 0.0, 0.0, 1.6292696260756252E9, 2021-08-18 00:53:46.075
228.0, -2423179.125, 4500000.0, -3331321.5, 4500000.0, 4500000.0, -2289120.1875, 4500000.0, -2944018.6875, 4500000.0, 4500000.0, 4500000.0, 4500000.0, 4500000.0, 4500000.0, 4500000.0, 4500000.0, -0.0210000011138618, 0.9515000581741333, 0.3695000186562538, 192.0, 0.0, 0.0, 0.0, 0.0, 0.0, 0.0, 0.0, 0.0, 0.0, 1.6292696260756328E9, 2021-08-18 00:53:46.075
230.0, -2423463.5625, 4500000.0, -3331528.5, 4500000.0, 4500000.0, -2288469.0, 4500000.0, -2944135.5, 4500000.0, 4500000.0, 4500000.0, 4500000.0, 4500000.0, 4500000.0, 4500000.0, 4500000.0, -0.012500000651925802, 0.9487500488758087, 0.3647500164806843, 192.0, 127.5, 112.0, 14.5, 72.0, 5.5, 32.0, 0.0, 0.0, 0.0, 1.6292696260756426E9, 2021-08-18 00:53:46.075
232.0, -2423621.25, 4500000.0, -3331610.25, 4500000.0, 4500000.0, -2289520.3125, 4500000.0, -2944484.8125, 4500000.0, 4500000.0, 4500000.0, 4500000.0, 4500000.0, 4500000.0, 4500000.0, 4500000.0, -0.012500000651925802, 0.9487500488758087, 0.3647500164806843, 192.0, 0.0, 0.0, 0.0, 0.0, 0.0, 0.0, 0.0, 0.0, 0.0, 1.6292696260756495E9, 2021-08-18 00:53:46.075
234.0, -2423117.4375, 4500000.0, -3331403.625, 4500000.0, 4500000.0, -2287840.3125, 4500000.0, -2943914.625, 4500000.0, 4500000.0, 4500000.0, 4500000.0, 4500000.0, 4500000.0, 4500000.0, 4500000.0, -0.012500000651925802, 0.9487500488758087, 0.3647500164806843, 192.0, 0.0, 0.0, 0.0, 0.0, 0.0, 0.0, 0.0, 0.0, 0.0, 1.629269626075657E9, 2021-08-18 00:53:46.075
236.0, -2423623.875, 4500000.0, -3331715.25, 4500000.0, 4500000.0, -2289577.3125, 4500000.0, -2944625.8125, 4500000.0, 4500000.0, 4500000.0, 4500000.0, 4500000.0, 4500000.0, 4500000.0, 4500000.0, -0.012500000651925802, 0.9487500488758087, 0.3647500164806843, 192.0, 0.0, 0.0, 0.0, 0.0, 0.0, 0.0, 0.0, 0.0, 0.0, 1.6292696260756636E9, 2021-08-18 00:53:46.075
238.0, -2423101.875, 4500000.0, -3331456.125, 4500000.0, 4500000.0, -2287596.1875, 4500000.0, -2944021.3125, 4500000.0, 4500000.0, 4500000.0, 4500000.0, 4500000.0, 4500000.0, 4500000.0, 4500000.0, -0.012500000651925802, 0.9487500488758087, 0.3647500164806843, 192.0, 0.0, 0.0, 0.0, 0.0, 0.0, 0.0, 0.0, 0.0, 0.0, 1.6292696260756707E9, 2021-08-18 00:53:46.075
240.0, -2423652.375, 4500000.0, -3331704.0, 4500000.0, 4500000.0, -2289655.5, 4500000.0, -2944478.8125, 4500000.0, 4500000.0, 4500000.0, 4500000.0, 4500000.0, 4500000.0, 4500000.0, 4500000.0, -0.007250000373460352, 0.9513750523328781, 0.3653750214725733, 192.0, 127.5, 120.0, 14.5, 104.0, 5.5, 56.0, 0.0, 0.0, 0.0, 1.6292696260756788E9, 2021-08-18 00:53:46.075
242.0, -2423362.6875, 4500000.0, -3331468.5, 4500000.0, 4500000.0, -2287463.0625, 4500000.0, -2944044.375, 4500000.0, 4500000.0, 4500000.0, 4500000.0, 4500000.0, 4500000.0, 4500000.0, 4500000.0, -0.007250000373460352, 0.9513750523328781, 0.3653750214725733, 192.0, 0.0, 0.0, 0.0, 0.0, 0.0, 0.0, 0.0, 0.0, 0.0, 1.6292696260757017E9, 2021-08-18 00:53:46.075
244.0, -2424021.9375, 4500000.0, -3331890.75, 4500000.0, 4500000.0, -2289999.9375, 4500000.0, -2945235.1875, 4500000.0, 4500000.0, 4500000.0, 4500000.0, 4500000.0, 4500000.0, 4500000.0, 4500000.0, -0.007250000373460352, 0.9513750523328781, 0.3653750214725733, 192.0, 0.0, 0.0, 0.0, 0.0, 0.0, 0.0, 0.0, 0.0, 0.0, 1.6292696260757084E9, 2021-08-18 00:53:46.075
246.0, -2422983.375, 4500000.0, -3331068.375, 4500000.0, 4500000.0, -2287334.4375, 4500000.0, -2944051.3125, 4500000.0, 4500000.0, 4500000.0, 4500000.0, 4500000.0, 4500000.0, 4500000.0, 4500000.0, -0.007250000373460352, 0.9513750523328781, 0.3653750214725733, 192.0, 0.0, 0.0, 0.0, 0.0, 0.0, 0.0, 0.0, 0.0, 0.0, 1.6292696260757165E9, 2021-08-18 00:53:46.075
248.0, -2424087.375, 4500000.0, -3331733.625, 4500000.0, 4500000.0, -2290196.8125, 4500000.0, -2945199.9375, 4500000.0, 4500000.0, 4500000.0, 4500000.0, 4500000.0, 4500000.0, 4500000.0, 4500000.0, -0.007250000373460352, 0.9513750523328781, 0.3653750214725733, 192.0, 0.0, 0.0, 0.0, 0.0, 0.0, 0.0, 0.0, 0.0, 0.0, 1.6292696260757236E9, 2021-08-18 00:53:46.075
250.0, -2422531.6875, 4500000.0, -3330516.0, 4500000.0, 4500000.0, -2287312.3125, 4500000.0, -2943816.9375, 4500000.0, 4500000.0, 4500000.0, 4500000.0, 4500000.0, 4500000.0, 4500000.0, 4500000.0, -0.02800000086426735, 0.940000057220459, 0.3580000102519989, 192.0, 127.5, 16.0, 14.5, 48.0, 5.5, 24.0, 0.0, 0.0, 0.0, 1.6292696260757308E9, 2021-08-18 00:53:46.075
252.0, -2424067.5, 4500000.0, -3331476.75, 4500000.0, 4500000.0, -2290366.3125, 4500000.0, -2945265.375, 4500000.0, 4500000.0, 4500000.0, 4500000.0, 4500000.0, 4500000.0, 4500000.0, 4500000.0, -0.02800000086426735, 0.940000057220459, 0.3580000102519989, 192.0, 0.0, 0.0, 0.0, 0.0, 0.0, 0.0, 0.0, 0.0, 0.0, 1.6292696260757408E9, 2021-08-18 00:53:46.075
254.0, -2422559.0625, 4500000.0, -3330478.875, 4500000.0, 4500000.0, -2287627.3125, 4500000.0, -2944062.0, 4500000.0, 4500000.0, 4500000.0, 4500000.0, 4500000.0, 4500000.0, 4500000.0, 4500000.0, -0.02800000086426735, 0.940000057220459, 0.3580000102519989, 192.0, 0.0, 0.0, 0.0, 0.0, 0.0, 0.0, 0.0, 0.0, 0.0, 1.6292696260757484E9, 2021-08-18 00:53:46.075
0.0, -2424358.875, 4500000.0, -3331589.625, 4500000.0, 4500000.0, -2290678.5, 4500000.0, -2945598.9375, 4500000.0, 4500000.0, 4500000.0, 4500000.0, 4500000.0, 4500000.0, 4500000.0, 4500000.0, -0.02800000086426735, 0.940000057220459, 0.3580000102519989, 192.0, 0.0, 0.0, 0.0, 0.0, 0.0, 0.0, 0.0, 0.0, 0.0, 1.6292696260757601E9, 2021-08-18 00:53:46.075
2.0, -2422609.5, 4500000.0, -3330201.375, 4500000.0, 4500000.0, -2287846.125, 4500000.0, -2944052.4375, 4500000.0, 4500000.0, 4500000.0, 4500000.0, 4500000.0, 4500000.0, 4500000.0, 4500000.0, -0.02800000086426735, 0.940000057220459, 0.3580000102519989, 192.0, 0.0, 0.0, 0.0, 0.0, 0.0, 0.0, 0.0, 0.0, 0.0, 1.6292696260757668E9, 2021-08-18 00:53:46.075
4.0, -2424106.6875, 4500000.0, -3331378.875, 4500000.0, 4500000.0, -2290422.1875, 4500000.0, -2945272.875, 4500000.0, 4500000.0, 4500000.0, 4500000.0, 4500000.0, 4500000.0, 4500000.0, 4500000.0, -0.03200000151991844, 0.9480000734329224, 0.36000001430511475, 192.0, 127.5, 0.0, 14.5, 80.0, 5.5, 32.0, 0.0, 0.0, 0.0, 1.6292696260757737E9, 2021-08-18 00:53:46.075
6.0, -2422868.625, 4500000.0, -3330628.125, 4500000.0, 4500000.0, -2288395.5, 4500000.0, -2944213.3125, 4500000.0, 4500000.0, 4500000.0, 4500000.0, 4500000.0, 4500000.0, 4500000.0, 4500000.0, -0.03200000151991844, 0.9480000734329224, 0.36000001430511475, 192.0, 0.0, 0.0, 0.0, 0.0, 0.0, 0.0, 0.0, 0.0, 0.0, 1.6292696260757816E9, 2021-08-18 00:53:46.075
8.0, -2424086.8125, 4500000.0, -3331562.625, 4500000.0, 4500000.0, -2290274.0625, 4500000.0, -2945128.5, 4500000.0, 4500000.0, 4500000.0, 4500000.0, 4500000.0, 4500000.0, 4500000.0, 4500000.0, -0.03200000151991844, 0.9480000734329224, 0.36000001430511475, 192.0, 0.0, 0.0, 0.0, 0.0, 0.0, 0.0, 0.0, 0.0, 0.0, 1.6292696260757887E9, 2021-08-18 00:53:46.075
10.0, -2422541.25, 4500000.0, -3330360.375, 4500000.0, 4500000.0, -2288346.1875, 4500000.0, -2943769.6875, 4500000.0, 4500000.0, 4500000.0, 4500000.0, 4500000.0, 4500000.0, 4500000.0, 4500000.0, -0.03200000151991844, 0.9480000734329224, 0.36000001430511475, 192.0, 0.0, 0.0, 0.0, 0.0, 0.0, 0.0, 0.0, 0.0, 0.0, 1.6292696260757954E9, 2021-08-18 00:53:46.075
12.0, -2423711.8125, 4500000.0, -3331438.875, 4500000.0, 4500000.0, -2290137.75, 4500000.0, -2945072.25, 4500000.0, 4500000.0, 4500000.0, 4500000.0, 4500000.0, 4500000.0, 4500000.0, 4500000.0, -0.03200000151991844, 0.9480000734329224, 0.36000001430511475, 192.0, 0.0, 0.0, 0.0, 0.0, 0.0, 0.0, 0.0, 0.0, 0.0, 1.629269626075802E9, 2021-08-18 00:53:46.075
14.0, -2422574.0625, 4500000.0, -3330525.375, 4500000.0, 4500000.0, -2289196.875, 4500000.0, -2944060.5, 4500000.0, 4500000.0, 4500000.0, 4500000.0, 4500000.0, 4500000.0, 4500000.0, 4500000.0, -0.05000000074505806, 0.9420000314712524, 0.3660000264644623, 192.0, 127.0, 56.0, 14.5, 56.0, 5.5, 56.0, 0.0, 0.0, 0.0, 1.6292696260758088E9, 2021-08-18 00:53:46.075
16.0, -2423493.5625, 4500000.0, -3330923.625, 4500000.0, 4500000.0, -2289730.125, 4500000.0, -2944680.5625, 4500000.0, 4500000.0, 4500000.0, 4500000.0, 4500000.0, 4500000.0, 4500000.0, 4500000.0, -0.05000000074505806, 0.9420000314712524, 0.3660000264644623, 192.0, 0.0, 0.0, 0.0, 0.0, 0.0, 0.0, 0.0, 0.0, 0.0, 1.629269626075816E9, 2021-08-18 00:53:46.075
18.0, -2422954.3125, 4500000.0, -3330274.5, 4500000.0, 4500000.0, -2289419.625, 4500000.0, -2944455.75, 4500000.0, 4500000.0, 4500000.0, 4500000.0, 4500000.0, 4500000.0, 4500000.0, 4500000.0, -0.05000000074505806, 0.9420000314712524, 0.3660000264644623, 192.0, 0.0, 0.0, 0.0, 0.0, 0.0, 0.0, 0.0, 0.0, 0.0, 1.629269626075824E9, 2021-08-18 00:53:46.075
20.0, -2423931.1875, 4500000.0, -3330916.125, 4500000.0, 4500000.0, -2289384.75, 4500000.0, -2945354.4375, 4500000.0, 4500000.0, 4500000.0, 4500000.0, 4500000.0, 4500000.0, 4500000.0, 4500000.0, -0.05000000074505806, 0.9420000314712524, 0.3660000264644623, 192.0, 0.0, 0.0, 0.0, 0.0, 0.0, 0.0, 0.0, 0.0, 0.0, 1.6292696260758312E9, 2021-08-18 00:53:46.075
22.0, -2423786.4375, 4500000.0, -3330655.875, 4500000.0, 4500000.0, -2289769.3125, 4500000.0, -2945175.1875, 4500000.0, 4500000.0, 4500000.0, 4500000.0, 4500000.0, 4500000.0, 4500000.0, 4500000.0, -0.05000000074505806, 0.9420000314712524, 0.3660000264644623, 192.0, 0.0, 0.0, 0.0, 0.0, 0.0, 0.0, 0.0, 0.0, 0.0, 1.6292696260758383E9, 2021-08-18 00:53:46.075
24.0, -2423799.75, 4500000.0, -3330828.0, 4500000.0, 4500000.0, -2288607.9375, 4500000.0, -2944889.8125, 4500000.0, 4500000.0, 4500000.0, 4500000.0, 4500000.0, 4500000.0, 4500000.0, 4500000.0, -0.030000001192092896, 0.9520000219345093, 0.3680000305175781, 192.0, 127.5, 8.0, 14.5, 96.0, 5.5, 64.0, 0.0, 0.0, 0.0, 1.6292696260758457E9, 2021-08-18 00:53:46.075
26.0, -2424116.25, 4500000.0, -3331441.875, 4500000.0, 4500000.0, -2290167.375, 4500000.0, -2944950.9375, 4500000.0, 4500000.0, 4500000.0, 4500000.0, 4500000.0, 4500000.0, 4500000.0, 4500000.0, -0.030000001192092896, 0.9520000219345093, 0.3680000305175781, 192.0, 0.0, 0.0, 0.0, 0.0, 0.0, 0.0, 0.0, 0.0, 0.0, 1.629269626075853E9, 2021-08-18 00:53:46.075
28.0, -2423811.1875, 4500000.0, -3331267.5, 4500000.0, 4500000.0, -2288334.9375, 4500000.0, -2944376.4375, 4500000.0, 4500000.0, 4500000.0, 4500000.0, 4500000.0, 4500000.0, 4500000.0, 4500000.0, -0.030000001192092896, 0.9520000219345093, 0.3680000305175781, 192.0, 0.0, 0.0, 0.0, 0.0, 0.0, 0.0, 0.0, 0.0, 0.0, 1.6292696260758612E9, 2021-08-18 00:53:46.075
30.0, -2424400.6875, 4500000.0, -3331810.125, 4500000.0, 4500000.0, -2290344.9375, 4500000.0, -2944949.8125, 4500000.0, 4500000.0, 4500000.0, 4500000.0, 4500000.0, 4500000.0, 4500000.0, 4500000.0, -0.030000001192092896, 0.9520000219345093, 0.3680000305175781, 192.0, 0.0, 0.0, 0.0, 0.0, 0.0, 0.0, 0.0, 0.0, 0.0, 1.6292696260758693E9, 2021-08-18 00:53:46.075
32.0, -2423936.625, 4500000.0, -3331671.75, 4500000.0, 4500000.0, -2288383.6875, 4500000.0, -2944545.9375, 4500000.0, 4500000.0, 4500000.0, 4500000.0, 4500000.0, 4500000.0, 4500000.0, 4500000.0, -0.030000001192092896, 0.9520000219345093, 0.3680000305175781, 192.0, 0.0, 0.0, 0.0, 0.0, 0.0, 0.0, 0.0, 0.0, 0.0, 1.6292696260758812E9, 2021-08-18 00:53:46.075
34.0, -2424438.1875, 4500000.0, -3331941.0, 4500000.0, 4500000.0, -2290650.1875, 4500000.0, -2945461.125, 4500000.0, 4500000.0, 4500000.0, 4500000.0, 4500000.0, 4500000.0, 4500000.0, 4500000.0, -0.012000000104308128, 0.9380000233650208, 0.3660000264644623, 192.0, 127.5, 80.0, 14.5, 40.0, 5.5, 56.0, 0.0, 0.0, 0.0, 1.6292696260759003E9, 2021-08-18 00:53:46.075
36.0, -2423385.1875, 4500000.0, -3331196.625, 4500000.0, 4500000.0, -2288047.3125, 4500000.0, -2944537.875, 4500000.0, 4500000.0, 4500000.0, 4500000.0, 4500000.0, 4500000.0, 4500000.0, 4500000.0, -0.012000000104308128, 0.9380000233650208, 0.3660000264644623, 192.0, 0.0, 0.0, 0.0, 0.0, 0.0, 0.0, 0.0, 0.0, 0.0, 1.6292696260759096E9, 2021-08-18 00:53:46.075
38.0, -2424441.375, 4500000.0, -3331832.625, 4500000.0, 4500000.0, -2290636.125, 4500000.0, -2945558.8125, 4500000.0, 4500000.0, 4500000.0, 4500000.0, 4500000.0, 4500000.0, 4500000.0, 4500000.0, -0.012000000104308128, 0.9380000233650208, 0.3660000264644623, 192.0, 0.0, 0.0, 0.0, 0.0, 0.0, 0.0, 0.0, 0.0, 0.0, 1.6292696260759196E9, 2021-08-18 00:53:46.075
40.0, -2423134.125, 4500000.0, -3331071.0, 4500000.0, 4500000.0, -2287806.9375, 4500000.0, -2944649.4375, 4500000.0, 4500000.0, 4500000.0, 4500000.0, 4500000.0, 4500000.0, 4500000.0, 4500000.0, -0.012000000104308128, 0.9380000233650208, 0.3660000264644623, 192.0, 0.0, 0.0, 0.0, 0.0, 0.0, 0.0, 0.0, 0.0, 0.0, 1.6292696260759296E9, 2021-08-18 00:53:46.075
42.0, -2424537.375, 4500000.0, -3332143.5, 4500000.0, 4500000.0, -2290786.875, 4500000.0, -2945759.4375, 4500000.0, 4500000.0, 4500000.0, 4500000.0, 4500000.0, 4500000.0, 4500000.0, 4500000.0, -0.009000000078231096, 0.9340000450611115, 0.36500002443790436, 192.0, 127.5, 104.0, 14.5, 8.0, 5.5, 48.0, 0.0, 0.0, 0.0, 1.629269626075939E9, 2021-08-18 00:53:46.075
44.0, -2423488.6875, 4500000.0, -3331345.125, 4500000.0, 4500000.0, -2287808.0625, 4500000.0, -2944717.125, 4500000.0, 4500000.0, 4500000.0, 4500000.0, 4500000.0, 4500000.0, 4500000.0, 4500000.0, -0.009000000078231096, 0.9340000450611115, 0.36500002443790436, 192.0, 0.0, 0.0, 0.0, 0.0, 0.0, 0.0, 0.0, 0.0, 0.0, 1.6292696260759468E9, 2021-08-18 00:53:46.075
46.0, -2424901.125, 4500000.0, -3332365.5, 4500000.0, 4500000.0, -2290397.4375, 4500000.0, -2946125.8125, 4500000.0, 4500000.0, 4500000.0, 4500000.0, 4500000.0, 4500000.0, 4500000.0, 4500000.0, -0.009000000078231096, 0.9340000450611115, 0.36500002443790436, 192.0, 0.0, 0.0, 0.0, 0.0, 0.0, 0.0, 0.0, 0.0, 0.0, 1.629269626075956E9, 2021-08-18 00:53:46.075
48.0, -2423460.75, 4500000.0, -3331322.625, 4500000.0, 4500000.0, -2287454.625, 4500000.0, -2944750.3125, 4500000.0, 4500000.0, 4500000.0, 4500000.0, 4500000.0, 4500000.0, 4500000.0, 4500000.0, -0.009000000078231096, 0.9340000450611115, 0.36500002443790436, 192.0, 0.0, 0.0, 0.0, 0.0, 0.0, 0.0, 0.0, 0.0, 0.0, 1.6292696265547955E9, 2021-08-18 00:53:46.554
50.0, -2424599.0625, 4500000.0, -3332140.875, 4500000.0, 4500000.0, -2289769.3125, 4500000.0, -2945799.5625, 4500000.0, 4500000.0, 4500000.0, 4500000.0, 4500000.0, 4500000.0, 4500000.0, 4500000.0, -0.009000000078231096, 0.9340000450611115, 0.36500002443790436, 192.0, 0.0, 0.0, 0.0, 0.0, 0.0, 0.0, 0.0, 0.0, 0.0, 1.6292696265548043E9, 2021-08-18 00:53:46.554
52.0, -2423099.25, 4500000.0, -3331094.25, 4500000.0, 4500000.0, -2287326.9375, 4500000.0, -2944772.8125, 4500000.0, 4500000.0, 4500000.0, 4500000.0, 4500000.0, 4500000.0, 4500000.0, 4500000.0, -0.006500000134110451, 0.9340000301599503, 0.36150001734495163, 192.0, 127.5, 112.0, 14.5, 24.0, 5.5, 24.0, 0.0, 0.0, 0.0, 1.6292696265548112E9, 2021-08-18 00:53:46.554
54.0, -2424384.5625, 4500000.0, -3331858.125, 4500000.0, 4500000.0, -2289590.625, 4500000.0, -2945797.5, 4500000.0, 4500000.0, 4500000.0, 4500000.0, 4500000.0, 4500000.0, 4500000.0, 4500000.0, -0.006500000134110451, 0.9340000301599503, 0.36150001734495163, 192.0, 0.0, 0.0, 0.0, 0.0, 0.0, 0.0, 0.0, 0.0, 0.0, 1.629269626554818E9, 2021-08-18 00:53:46.554
56.0, -2423008.5, 4500000.0, -3330642.0, 4500000.0, 4500000.0, -2287474.3125, 4500000.0, -2944720.875, 4500000.0, 4500000.0, 4500000.0, 4500000.0, 4500000.0, 4500000.0, 4500000.0, 4500000.0, -0.006500000134110451, 0.9340000301599503, 0.36150001734495163, 192.0, 0.0, 0.0, 0.0, 0.0, 0.0, 0.0, 0.0, 0.0, 0.0, 1.6292696265548253E9, 2021-08-18 00:53:46.554
58.0, -2424548.625, 4500000.0, -3331695.0, 4500000.0, 4500000.0, -2289429.75, 4500000.0, -2946136.5, 4500000.0, 4500000.0, 4500000.0, 4500000.0, 4500000.0, 4500000.0, 4500000.0, 4500000.0, -0.006500000134110451, 0.9340000301599503, 0.36150001734495163, 192.0, 0.0, 0.0, 0.0, 0.0, 0.0, 0.0, 0.0, 0.0, 0.0, 1.6292696265548327E9, 2021-08-18 00:53:46.554
60.0, -2423175.9375, 4500000.0, -3330592.125, 4500000.0, 4500000.0, -2287800.5625, 4500000.0, -2945180.625, 4500000.0, 4500000.0, 4500000.0, 4500000.0, 4500000.0, 4500000.0, 4500000.0, 4500000.0, -0.006500000134110451, 0.9340000301599503, 0.36150001734495163, 192.0, 0.0, 0.0, 0.0, 0.0, 0.0, 0.0, 0.0, 0.0, 0.0, 1.6292696265548394E9, 2021-08-18 00:53:46.554
62.0, -2424414.0, 4500000.0, -3331253.625, 4500000.0, 4500000.0, -2288718.375, 4500000.0, -2945808.75, 4500000.0, 4500000.0, 4500000.0, 4500000.0, 4500000.0, 4500000.0, 4500000.0, 4500000.0, -0.0062500000931322575, 0.9430000260472298, 0.3657500110566616, 192.0, 127.5, 104.0, 14.5, 96.0, 5.5, 72.0, 0.0, 0.0, 0.0, 1.629269626554846E9, 2021-08-18 00:53:46.554
64.0, -2423710.875, 4500000.0, -3330588.75, 4500000.0, 4500000.0, -2288140.6875, 4500000.0, -2945454.1875, 4500000.0, 4500000.0, 4500000.0, 4500000.0, 4500000.0, 4500000.0, 4500000.0, 4500000.0, -0.0062500000931322575, 0.9430000260472298, 0.3657500110566616, 192.0, 0.0, 0.0, 0.0, 0.0, 0.0, 0.0, 0.0, 0.0, 0.0, 1.629269626554853E9, 2021-08-18 00:53:46.554
66.0, -2424309.0, 4500000.0, -3331303.875, 4500000.0, 4500000.0, -2288717.8125, 4500000.0, -2945775.9375, 4500000.0, 4500000.0, 4500000.0, 4500000.0, 4500000.0, 4500000.0, 4500000.0, 4500000.0, -0.0062500000931322575, 0.9430000260472298, 0.3657500110566616, 192.0, 0.0, 0.0, 0.0, 0.0, 0.0, 0.0, 0.0, 0.0, 0.0, 1.6292696265548599E9, 2021-08-18 00:53:46.554
68.0, -2423937.1875, 4500000.0, -3330924.0, 4500000.0, 4500000.0, -2289021.5625, 4500000.0, -2945639.8125, 4500000.0, 4500000.0, 4500000.0, 4500000.0, 4500000.0, 4500000.0, 4500000.0, 4500000.0, -0.0062500000931322575, 0.9430000260472298, 0.3657500110566616, 192.0, 0.0, 0.0, 0.0, 0.0, 0.0, 0.0, 0.0, 0.0, 0.0, 1.6292696265548735E9, 2021-08-18 00:53:46.554
70.0, -2423871.75, 4500000.0, -3330827.625, 4500000.0, 4500000.0, -2288332.6875, 4500000.0, -2945589.375, 4500000.0, 4500000.0, 4500000.0, 4500000.0, 4500000.0, 4500000.0, 4500000.0, 4500000.0, -0.0062500000931322575, 0.9430000260472298, 0.3657500110566616, 192.0, 0.0, 0.0, 0.0, 0.0, 0.0, 0.0, 0.0, 0.0, 0.0, 1.62926962655488E9, 2021-08-18 00:53:46.554
72.0, -2423707.125, 4500000.0, -3330520.125, 4500000.0, 4500000.0, -2289177.5625, 4500000.0, -2945657.4375, 4500000.0, 4500000.0, 4500000.0, 4500000.0, 4500000.0, 4500000.0, 4500000.0, 4500000.0, -0.020125000970438123, 0.944500032812357, 0.3678750079125166, 192.0, 127.0, 120.0, 14.5, 72.0, 5.5, 72.0, 0.0, 0.0, 0.0, 1.6292696265548868E9, 2021-08-18 00:53:46.554
74.0, -2424104.0625, 4500000.0, -3330687.375, 4500000.0, 4500000.0, -2288376.1875, 4500000.0, -2945893.5, 4500000.0, 4500000.0, 4500000.0, 4500000.0, 4500000.0, 4500000.0, 4500000.0, 4500000.0, -0.020125000970438123, 0.944500032812357, 0.3678750079125166, 192.0, 0.0, 0.0, 0.0, 0.0, 0.0, 0.0, 0.0, 0.0, 0.0, 1.6292696265548933E9, 2021-08-18 00:53:46.554
76.0, -2424450.0, 4500000.0, -3330777.0, 4500000.0, 4500000.0, -2289947.4375, 4500000.0, -2946409.5, 4500000.0, 4500000.0, 4500000.0, 4500000.0, 4500000.0, 4500000.0, 4500000.0, 4500000.0, -0.020125000970438123, 0.944500032812357, 0.3678750079125166, 192.0, 0.0, 0.0, 0.0, 0.0, 0.0, 0.0, 0.0, 0.0, 0.0, 1.6292696265549E9, 2021-08-18 00:53:46.554
78.0, -2423960.8125, 4500000.0, -3330508.875, 4500000.0, 4500000.0, -2288070.375, 4500000.0, -2945796.9375, 4500000.0, 4500000.0, 4500000.0, 4500000.0, 4500000.0, 4500000.0, 4500000.0, 4500000.0, -0.020125000970438123, 0.944500032812357, 0.3678750079125166, 192.0, 0.0, 0.0, 0.0, 0.0, 0.0, 0.0, 0.0, 0.0, 0.0, 1.6292696265549066E9, 2021-08-18 00:53:46.554
80.0, -2424824.4375, 4500000.0, -3331158.375, 4500000.0, 4500000.0, -2290511.8125, 4500000.0, -2946728.625, 4500000.0, 4500000.0, 4500000.0, 4500000.0, 4500000.0, 4500000.0, 4500000.0, 4500000.0, -0.020125000970438123, 0.944500032812357, 0.3678750079125166, 192.0, 0.0, 0.0, 0.0, 0.0, 0.0, 0.0, 0.0, 0.0, 0.0, 1.6292696265549133E9, 2021-08-18 00:53:46.554
82.0, -2423801.4375, 4500000.0, -3330582.75, 4500000.0, 4500000.0, -2287962.5625, 4500000.0, -2945672.4375, 4500000.0, 4500000.0, 4500000.0, 4500000.0, 4500000.0, 4500000.0, 4500000.0, 4500000.0, -0.026000000536441803, 0.9500000476837158, 0.3720000088214874, 192.0, 127.5, 24.0, 14.5, 88.0, 5.5, 80.0, 0.0, 0.0, 0.0, 1.6292696265549197E9, 2021-08-18 00:53:46.554
84.0, -2424668.8125, 4500000.0, -3331353.375, 4500000.0, 4500000.0, -2290540.6875, 4500000.0, -2946238.875, 4500000.0, 4500000.0, 4500000.0, 4500000.0, 4500000.0, 4500000.0, 4500000.0, 4500000.0, -0.026000000536441803, 0.9500000476837158, 0.3720000088214874, 192.0, 0.0, 0.0, 0.0, 0.0, 0.0, 0.0, 0.0, 0.0, 0.0, 1.6292696265549264E9, 2021-08-18 00:53:46.554
86.0, -2423611.5, 4500000.0, -3330441.75, 4500000.0, 4500000.0, -2287635.375, 4500000.0, -2945400.9375, 4500000.0, 4500000.0, 4500000.0, 4500000.0, 4500000.0, 4500000.0, 4500000.0, 4500000.0, -0.026000000536441803, 0.9500000476837158, 0.3720000088214874, 192.0, 0.0, 0.0, 0.0, 0.0, 0.0, 0.0, 0.0, 0.0, 0.0, 1.6292696265549333E9, 2021-08-18 00:53:46.554
88.0, -2425023.9375, 4500000.0, -3331443.75, 4500000.0, 4500000.0, -2290697.8125, 4500000.0, -2946434.8125, 4500000.0, 4500000.0, 4500000.0, 4500000.0, 4500000.0, 4500000.0, 4500000.0, 4500000.0, -0.026000000536441803, 0.9500000476837158, 0.3720000088214874, 192.0, 0.0, 0.0, 0.0, 0.0, 0.0, 0.0, 0.0, 0.0, 0.0, 1.6292696265549395E9, 2021-08-18 00:53:46.554
90.0, -2424053.625, 4500000.0, -3330843.0, 4500000.0, 4500000.0, -2288021.0625, 4500000.0, -2945633.8125, 4500000.0, 4500000.0, 4500000.0, 4500000.0, 4500000.0, 4500000.0, 4500000.0, 4500000.0, -0.026000000536441803, 0.9500000476837158, 0.3720000088214874, 192.0, 0.0, 0.0, 0.0, 0.0, 0.0, 0.0, 0.0, 0.0, 0.0, 1.6292696265549464E9, 2021-08-18 00:53:46.554
92.0, -2425266.375, 4500000.0, -3331699.875, 4500000.0, 4500000.0, -2290711.875, 4500000.0, -2947002.75, 4500000.0, 4500000.0, 4500000.0, 4500000.0, 4500000.0, 4500000.0, 4500000.0, 4500000.0, -0.03800000250339508, 0.9380000233650208, 0.3700000047683716, 192.0, 127.0, 104.0, 14.5, 40.0, 5.5, 72.0, 0.0, 0.0, 0.0, 1.6292696265549529E9, 2021-08-18 00:53:46.554
94.0, -2423549.25, 4500000.0, -3330395.625, 4500000.0, 4500000.0, -2287720.125, 4500000.0, -2945432.625, 4500000.0, 4500000.0, 4500000.0, 4500000.0, 4500000.0, 4500000.0, 4500000.0, 4500000.0, -0.03800000250339508, 0.9380000233650208, 0.3700000047683716, 192.0, 0.0, 0.0, 0.0, 0.0, 0.0, 0.0, 0.0, 0.0, 0.0, 1.6292696265549595E9, 2021-08-18 00:53:46.554
96.0, -2425020.75, 4500000.0, -3331391.25, 4500000.0, 4500000.0, -2290497.75, 4500000.0, -2946802.125, 4500000.0, 4500000.0, 4500000.0, 4500000.0, 4500000.0, 4500000.0, 4500000.0, 4500000.0, -0.03800000250339508, 0.9380000233650208, 0.3700000047683716, 192.0, 0.0, 0.0, 0.0, 0.0, 0.0, 0.0, 0.0, 0.0, 0.0, 1.629269626554966E9, 2021-08-18 00:53:46.554
98.0, -2423706.5625, 4500000.0, -3330590.25, 4500000.0, 4500000.0, -2288073.5625, 4500000.0, -2945876.8125, 4500000.0, 4500000.0, 4500000.0, 4500000.0, 4500000.0, 4500000.0, 4500000.0, 4500000.0, -0.03800000250339508, 0.9380000233650208, 0.3700000047683716, 192.0, 0.0, 0.0, 0.0, 0.0, 0.0, 0.0, 0.0, 0.0, 0.0, 1.629269626554973E9, 2021-08-18 00:53:46.554
100.0, -2425360.3125, 4500000.0, -3331665.0, 4500000.0, 4500000.0, -2290700.625, 4500000.0, -2947264.125, 4500000.0, 4500000.0, 4500000.0, 4500000.0, 4500000.0, 4500000.0, 4500000.0, 4500000.0, -0.03800000250339508, 0.9380000233650208, 0.3700000047683716, 192.0, 0.0, 0.0, 0.0, 0.0, 0.0, 0.0, 0.0, 0.0, 0.0, 1.629269626554979E9, 2021-08-18 00:53:46.554
102.0, -2423435.625, 4500000.0, -3330447.0, 4500000.0, 4500000.0, -2287984.5, 4500000.0, -2945604.9375, 4500000.0, 4500000.0, 4500000.0, 4500000.0, 4500000.0, 4500000.0, 4500000.0, 4500000.0, -0.04400000348687172, 0.9460000395774841, 0.37800002098083496, 192.0, 127.0, 80.0, 14.5, 72.0, 5.5, 104.0, 0.0, 0.0, 0.0, 1.629269626554988E9, 2021-08-18 00:53:46.554
104.0, -2424881.8125, 4500000.0, -3331630.125, 4500000.0, 4500000.0, -2290209.1875, 4500000.0, -2946732.0, 4500000.0, 4500000.0, 4500000.0, 4500000.0, 4500000.0, 4500000.0, 4500000.0, 4500000.0, -0.04400000348687172, 0.9460000395774841, 0.37800002098083496, 192.0, 0.0, 0.0, 0.0, 0.0, 0.0, 0.0, 0.0, 0.0, 0.0, 1.6292696265549943E9, 2021-08-18 00:53:46.554
106.0, -2423409.375, 4500000.0, -3330608.625, 4500000.0, 4500000.0, -2288257.125, 4500000.0, -2945124.75, 4500000.0, 4500000.0, 4500000.0, 4500000.0, 4500000.0, 4500000.0, 4500000.0, 4500000.0, -0.04400000348687172, 0.9460000395774841, 0.37800002098083496, 192.0, 0.0, 0.0, 0.0, 0.0, 0.0, 0.0, 0.0, 0.0, 0.0, 1.6292696265550015E9, 2021-08-18 00:53:46.555
108.0, -2424900.5625, 4500000.0, -3331745.25, 4500000.0, 4500000.0, -2289780.5625, 4500000.0, -2946355.3125, 4500000.0, 4500000.0, 4500000.0, 4500000.0, 4500000.0, 4500000.0, 4500000.0, 4500000.0, -0.04400000348687172, 0.9460000395774841, 0.37800002098083496, 192.0, 0.0, 0.0, 0.0, 0.0, 0.0, 0.0, 0.0, 0.0, 0.0, 1.6292696265550082E9, 2021-08-18 00:53:46.555
110.0, -2423678.0625, 4500000.0, -3330905.25, 4500000.0, 4500000.0, -2288350.875, 4500000.0, -2945410.125, 4500000.0, 4500000.0, 4500000.0, 4500000.0, 4500000.0, 4500000.0, 4500000.0, 4500000.0, -0.04400000348687172, 0.9460000395774841, 0.37800002098083496, 192.0, 0.0, 0.0, 0.0, 0.0, 0.0, 0.0, 0.0, 0.0, 0.0, 1.629269626555015E9, 2021-08-18 00:53:46.555
112.0, -2424969.75, 4500000.0, -3331847.25, 4500000.0, 4500000.0, -2289213.0, 4500000.0, -2946489.0, 4500000.0, 4500000.0, 4500000.0, 4500000.0, 4500000.0, 4500000.0, 4500000.0, 4500000.0, -0.02800000086426735, 0.9420000314712524, 0.36400002241134644, 192.0, 127.5, 16.0, 14.5, 56.0, 5.5, 48.0, 0.0, 0.0, 0.0, 1.629269626555022E9, 2021-08-18 00:53:46.555
114.0, -2424122.25, 4500000.0, -3331464.75, 4500000.0, 4500000.0, -2288769.375, 4500000.0, -2945884.875, 4500000.0, 4500000.0, 4500000.0, 4500000.0, 4500000.0, 4500000.0, 4500000.0, 4500000.0, -0.02800000086426735, 0.9420000314712524, 0.36400002241134644, 192.0, 0.0, 0.0, 0.0, 0.0, 0.0, 0.0, 0.0, 0.0, 0.0, 1.6292696265550287E9, 2021-08-18 00:53:46.555
116.0, -2424565.3125, 4500000.0, -3331858.125, 4500000.0, 4500000.0, -2288612.8125, 4500000.0, -2946067.3125, 4500000.0, 4500000.0, 4500000.0, 4500000.0, 4500000.0, 4500000.0, 4500000.0, 4500000.0, -0.02800000086426735, 0.9420000314712524, 0.36400002241134644, 192.0, 0.0, 0.0, 0.0, 0.0, 0.0, 0.0, 0.0, 0.0, 0.0, 1.629269626555035E9, 2021-08-18 00:53:46.555
118.0, -2424301.875, 4500000.0, -3331669.125, 4500000.0, 4500000.0, -2288997.9375, 4500000.0, -2945952.9375, 4500000.0, 4500000.0, 4500000.0, 4500000.0, 4500000.0, 4500000.0, 4500000.0, 4500000.0, -0.02800000086426735, 0.9420000314712524, 0.36400002241134644, 192.0, 0.0, 0.0, 0.0, 0.0, 0.0, 0.0, 0.0, 0.0, 0.0, 1.6292696265550418E9, 2021-08-18 00:53:46.555
120.0, -2424720.9375, 4500000.0, -3332218.875, 4500000.0, 4500000.0, -2288538.1875, 4500000.0, -2946355.3125, 4500000.0, 4500000.0, 4500000.0, 4500000.0, 4500000.0, 4500000.0, 4500000.0, 4500000.0, -0.02800000086426735, 0.9420000314712524, 0.36400002241134644, 192.0, 0.0, 0.0, 0.0, 0.0, 0.0, 0.0, 0.0, 0.0, 0.0, 1.6292696265550485E9, 2021-08-18 00:53:46.555
122.0, -2424244.5, 4500000.0, -3331778.625, 4500000.0, 4500000.0, -2289348.1875, 4500000.0, -2946177.1875, 4500000.0, 4500000.0, 4500000.0, 4500000.0, 4500000.0, 4500000.0, 4500000.0, 4500000.0, -0.024000000208616257, 0.9540000557899475, 0.3620000183582306, 192.0, 127.5, 32.0, 14.5, 104.0, 5.5, 40.0, 0.0, 0.0, 0.0, 1.629269626555055E9, 2021-08-18 00:53:46.555
124.0, -2424331.5, 4500000.0, -3331984.5, 4500000.0, 4500000.0, -2288092.875, 4500000.0, -2945808.1875, 4500000.0, 4500000.0, 4500000.0, 4500000.0, 4500000.0, 4500000.0, 4500000.0, 4500000.0, -0.024000000208616257, 0.9540000557899475, 0.3620000183582306, 192.0, 0.0, 0.0, 0.0, 0.0, 0.0, 0.0, 0.0, 0.0, 0.0, 1.6292696265550632E9, 2021-08-18 00:53:46.555
126.0, -2424753.0, 4500000.0, -3332319.0, 4500000.0, 4500000.0, -2289886.875, 4500000.0, -2946423.5625, 4500000.0, 4500000.0, 4500000.0, 4500000.0, 4500000.0, 4500000.0, 4500000.0, 4500000.0, -0.024000000208616257, 0.9540000557899475, 0.3620000183582306, 192.0, 0.0, 0.0, 0.0, 0.0, 0.0, 0.0, 0.0, 0.0, 0.0, 1.6292696265550697E9, 2021-08-18 00:53:46.555
128.0, -2424397.875, 4500000.0, -3332100.0, 4500000.0, 4500000.0, -2287854.75, 4500000.0, -2945805.0, 4500000.0, 4500000.0, 4500000.0, 4500000.0, 4500000.0, 4500000.0, 4500000.0, 4500000.0, -0.024000000208616257, 0.9540000557899475, 0.3620000183582306, 192.0, 0.0, 0.0, 0.0, 0.0, 0.0, 0.0, 0.0, 0.0, 0.0, 1.6292696265550764E9, 2021-08-18 00:53:46.555
130.0, -2424972.5625, 4500000.0, -3332375.625, 4500000.0, 4500000.0, -2289911.4375, 4500000.0, -2946316.6875, 4500000.0, 4500000.0, 4500000.0, 4500000.0, 4500000.0, 4500000.0, 4500000.0, 4500000.0, -0.016000000294297934, 0.9560000598430634, 0.36100001633167267, 192.0, 127.5, 96.0, 14.5, 120.0, 5.5, 32.0, 0.0, 0.0, 0.0, 1.6292696265550835E9, 2021-08-18 00:53:46.555
132.0, -2424060.0, 4500000.0, -3331838.625, 4500000.0, 4500000.0, -2287388.0625, 4500000.0, -2945427.75, 4500000.0, 4500000.0, 4500000.0, 4500000.0, 4500000.0, 4500000.0, 4500000.0, 4500000.0, -0.016000000294297934, 0.9560000598430634, 0.36100001633167267, 192.0, 0.0, 0.0, 0.0, 0.0, 0.0, 0.0, 0.0, 0.0, 0.0, 1.62926962655509E9, 2021-08-18 00:53:46.555
134.0, -2425326.0, 4500000.0, -3332793.0, 4500000.0, 4500000.0, -2290072.3125, 4500000.0, -2946254.4375, 4500000.0, 4500000.0, 4500000.0, 4500000.0, 4500000.0, 4500000.0, 4500000.0, 4500000.0, -0.016000000294297934, 0.9560000598430634, 0.36100001633167267, 192.0, 0.0, 0.0, 0.0, 0.0, 0.0, 0.0, 0.0, 0.0, 0.0, 1.6292696265550969E9, 2021-08-18 00:53:46.555
136.0, -2424277.3125, 4500000.0, -3332142.375, 4500000.0, 4500000.0, -2287280.8125, 4500000.0, -2945258.25, 4500000.0, 4500000.0, 4500000.0, 4500000.0, 4500000.0, 4500000.0, 4500000.0, 4500000.0, -0.016000000294297934, 0.9560000598430634, 0.36100001633167267, 192.0, 0.0, 0.0, 0.0, 0.0, 0.0, 0.0, 0.0, 0.0, 0.0, 1.6292696265551033E9, 2021-08-18 00:53:46.555
138.0, -2425551.375, 4500000.0, -3332850.0, 4500000.0, 4500000.0, -2289972.0, 4500000.0, -2946494.8125, 4500000.0, 4500000.0, 4500000.0, 4500000.0, 4500000.0, 4500000.0, 4500000.0, 4500000.0, -0.016000000294297934, 0.9560000598430634, 0.36100001633167267, 192.0, 0.0, 0.0, 0.0, 0.0, 0.0, 0.0, 0.0, 0.0, 0.0, 1.6292696265551198E9, 2021-08-18 00:53:46.555
140.0, -2424091.125, 4500000.0, -3331960.5, 4500000.0, 4500000.0, -2287170.75, 4500000.0, -2945294.25, 4500000.0, 4500000.0, 4500000.0, 4500000.0, 4500000.0, 4500000.0, 4500000.0, 4500000.0, -0.012000000337138772, 0.9600000530481339, 0.3635000213980675, 192.0, 127.5, 96.0, 15.0, 16.0, 5.5, 56.0, 0.0, 0.0, 0.0, 1.6292696265551264E9, 2021-08-18 00:53:46.555
142.0, -2425398.375, 4500000.0, -3333075.375, 4500000.0, 4500000.0, -2290150.6875, 4500000.0, -2946913.875, 4500000.0, 4500000.0, 4500000.0, 4500000.0, 4500000.0, 4500000.0, 4500000.0, 4500000.0, -0.012000000337138772, 0.9600000530481339, 0.3635000213980675, 192.0, 0.0, 0.0, 0.0, 0.0, 0.0, 0.0, 0.0, 0.0, 0.0, 1.6292696265551329E9, 2021-08-18 00:53:46.555
144.0, -2423894.25, 4500000.0, -3332139.75, 4500000.0, 4500000.0, -2287471.125, 4500000.0, -2945481.9375, 4500000.0, 4500000.0, 4500000.0, 4500000.0, 4500000.0, 4500000.0, 4500000.0, 4500000.0, -0.012000000337138772, 0.9600000530481339, 0.3635000213980675, 192.0, 0.0, 0.0, 0.0, 0.0, 0.0, 0.0, 0.0, 0.0, 0.0, 1.6292696265551395E9, 2021-08-18 00:53:46.555
146.0, -2424831.375, 4500000.0, -3332605.125, 4500000.0, 4500000.0, -2289770.4375, 4500000.0, -2946278.0625, 4500000.0, 4500000.0, 4500000.0, 4500000.0, 4500000.0, 4500000.0, 4500000.0, 4500000.0, -0.012000000337138772, 0.9600000530481339, 0.3635000213980675, 192.0, 0.0, 0.0, 0.0, 0.0, 0.0, 0.0, 0.0, 0.0, 0.0, 1.629269626555146E9, 2021-08-18 00:53:46.555
148.0, -2423286.9375, 4500000.0, -3331684.125, 4500000.0, 4500000.0, -2287397.25, 4500000.0, -2944986.9375, 4500000.0, 4500000.0, 4500000.0, 4500000.0, 4500000.0, 4500000.0, 4500000.0, 4500000.0, -0.012000000337138772, 0.9600000530481339, 0.3635000213980675, 192.0, 0.0, 0.0, 0.0, 0.0, 0.0, 0.0, 0.0, 0.0, 0.0, 1.629269626555153E9, 2021-08-18 00:53:46.555
150.0, -2425102.875, 4500000.0, -3332886.375, 4500000.0, 4500000.0, -2290061.625, 4500000.0, -2946505.5, 4500000.0, 4500000.0, 4500000.0, 4500000.0, 4500000.0, 4500000.0, 4500000.0, 4500000.0, -0.016000000876374543, 0.9510000422596931, 0.3647500239312649, 192.0, 127.5, 48.0, 14.5, 56.0, 5.5, 56.0, 0.0, 0.0, 0.0, 1.6292696265551593E9, 2021-08-18 00:53:46.555
152.0, -2423917.875, 4500000.0, -3332019.0, 4500000.0, 4500000.0, -2288023.125, 4500000.0, -2945570.0625, 4500000.0, 4500000.0, 4500000.0, 4500000.0, 4500000.0, 4500000.0, 4500000.0, 4500000.0, -0.016000000876374543, 0.9510000422596931, 0.3647500239312649, 192.0, 0.0, 0.0, 0.0, 0.0, 0.0, 0.0, 0.0, 0.0, 0.0, 1.629269626555166E9, 2021-08-18 00:53:46.555
154.0, -2425426.875, 4500000.0, -3333057.375, 4500000.0, 4500000.0, -2290037.4375, 4500000.0, -2946808.125, 4500000.0, 4500000.0, 4500000.0, 4500000.0, 4500000.0, 4500000.0, 4500000.0, 4500000.0, -0.016000000876374543, 0.9510000422596931, 0.3647500239312649, 192.0, 0.0, 0.0, 0.0, 0.0, 0.0, 0.0, 0.0, 0.0, 0.0, 1.6292696265551724E9, 2021-08-18 00:53:46.555
156.0, -2424108.75, 4500000.0, -3332107.875, 4500000.0, 4500000.0, -2288529.5625, 4500000.0, -2945866.125, 4500000.0, 4500000.0, 4500000.0, 4500000.0, 4500000.0, 4500000.0, 4500000.0, 4500000.0, -0.016000000876374543, 0.9510000422596931, 0.3647500239312649, 192.0, 0.0, 0.0, 0.0, 0.0, 0.0, 0.0, 0.0, 0.0, 0.0, 1.629269626555179E9, 2021-08-18 00:53:46.555
