%OpenBCI Raw EEG Data
%Number of channels = 16
%Sample Rate = 125 Hz
%Board = OpenBCI_GUI$BoardCytonSerialDaisy
Sample Index, EXG Channel 0, EXG Channel 1, EXG Channel 2, EXG Channel 3, EXG Channel 4, EXG Channel 5, EXG Channel 6, EXG Channel 7, EXG Channel 8, EXG Channel 9, EXG Channel 10, EXG Channel 11, EXG Channel 12, EXG Channel 13, EXG Channel 14, EXG Channel 15, Accel Channel 0, Accel Channel 1, Accel Channel 2, Other, Other, Other, Other, Other, Other, Other, Analog Channel 0, Analog Channel 1, Analog Channel 2, Timestamp, Timestamp (Formatted)
162.0, -1744743.9375, -1846089.5625, -3043899.1875, -4500000.375, -4500000.375, -2464892.8125, -2685009.375, -2331704.0625, -4500000.375, -4500000.375, -4500000.375, -4500000.375, -4500000.375, -4500000.375, -4500000.375, -4500000.375, 0.0, 0.0, 0.0, 192.0, 0.0, 0.0, 0.0, 0.0, 0.0, 0.0, 0.0, 0.0, 0.0, 1.6299398253153489E9, 2021-08-25 19:03:45.315
164.0, -1715402.625, -1751667.75, -3040504.6875, -4500000.375, -4500000.375, -2393496.1875, -2597888.0625, -2329394.625, -4500000.375, -4500000.375, -4500000.375, -4500000.375, -4500000.375, -4500000.375, -4500000.375, -4500000.375, 0.0, 0.0, 0.0, 192.0, 0.0, 0.0, 0.0, 0.0, 0.0, 0.0, 0.0, 0.0, 0.0, 1.6299398253153555E9, 2021-08-25 19:03:45.315
166.0, -1743449.4375, -1835043.1875, -3044956.125, -4500000.375, -4500000.375, -2461871.0625, -2684056.6875, -2332916.4375, -4500000.375, -4500000.375, -4500000.375, -4500000.375, -4500000.375, -4500000.375, -4500000.375, -4500000.375, 0.0, 0.0, 0.0, 192.0, 0.0, 0.0, 0.0, 0.0, 0.0, 0.0, 0.0, 0.0, 0.0, 1.6299398253153622E9, 2021-08-25 19:03:45.315
168.0, -1716871.875, -1762821.375, -3039501.0, -4500000.375, -4500000.375, -2396793.75, -2598954.0, -2327656.125, -4500000.375, -4500000.375, -4500000.375, -4500000.375, -4500000.375, -4500000.375, -4500000.375, -4500000.375, 0.07400000095367432, 0.46000000834465027, 0.20400001108646393, 192.0, 2.0, 80.0, 14.0, 96.0, 6.0, 96.0, 0.0, 0.0, 0.0, 1.6299398253153691E9, 2021-08-25 19:03:45.315
170.0, -1741236.0, -1822374.5625, -3045893.25, -4500000.375, -4500000.375, -2457205.125, -2681435.625, -2333299.5, -4500000.375, -4500000.375, -4500000.375, -4500000.375, -4500000.375, -4500000.375, -4500000.375, -4500000.375, 0.07400000095367432, 0.46000000834465027, 0.20400001108646393, 192.0, 0.0, 0.0, 0.0, 0.0, 0.0, 0.0, 0.0, 0.0, 0.0, 1.629939825315376E9, 2021-08-25 19:03:45.315
172.0, -1719598.6875, -1778173.3125, -3039064.875, -4500000.375, -4500000.375, -2402800.875, -2602861.5, -2327289.5625, -4500000.375, -4500000.375, -4500000.375, -4500000.375, -4500000.375, -4500000.375, -4500000.375, -4500000.375, 0.07400000095367432, 0.46000000834465027, 0.20400001108646393, 192.0, 0.0, 0.0, 0.0, 0.0, 0.0, 0.0, 0.0, 0.0, 0.0, 1.6299398253153827E9, 2021-08-25 19:03:45.315
174.0, -1737891.375, -1807534.875, -3046518.75, -4500000.375, -4500000.375, -2450375.625, -2675343.375, -2333254.3125, -4500000.375, -4500000.375, -4500000.375, -4500000.375, -4500000.375, -4500000.375, -4500000.375, -4500000.375, 0.07400000095367432, 0.46000000834465027, 0.20400001108646393, 192.0, 0.0, 0.0, 0.0, 0.0, 0.0, 0.0, 0.0, 0.0, 0.0, 1.6299398253153894E9, 2021-08-25 19:03:45.315
176.0, -1722472.3125, -1792694.8125, -3038640.5625, -4500000.375, -4500000.375, -2410035.75, -2608766.0625, -2326427.625, -4500000.375, -4500000.375, -4500000.375, -4500000.375, -4500000.375, -4500000.375, -4500000.375, -4500000.375, 0.07400000095367432, 0.46000000834465027, 0.20400001108646393, 192.0, 0.0, 0.0, 0.0, 0.0, 0.0, 0.0, 0.0, 0.0, 0.0, 1.629939825315396E9, 2021-08-25 19:03:45.315
178.0, -1734424.3125, -1791905.625, -3047448.9375, -4500000.375, -4500000.375, -2442849.9375, -2668415.25, -2333985.5625, -4500000.375, -4500000.375, -4500000.375, -4500000.375, -4500000.375, -4500000.375, -4500000.375, -4500000.375, 0.10600000619888306, 0.685000017285347, 0.30500001460313797, 192.0, 2.0, 40.0, 14.0, 56.0, 6.0, 88.0, 0.0, 0.0, 0.0, 1.6299398253154025E9, 2021-08-25 19:03:45.315
180.0, -1726594.5, -1809882.9375, -3038607.75, -4500000.375, -4500000.375, -2419357.5, -2618246.0625, -2326582.125, -4500000.375, -4500000.375, -4500000.375, -4500000.375, -4500000.375, -4500000.375, -4500000.375, -4500000.375, 0.10600000619888306, 0.685000017285347, 0.30500001460313797, 192.0, 0.0, 0.0, 0.0, 0.0, 0.0, 0.0, 0.0, 0.0, 0.0, 1.6299398253154092E9, 2021-08-25 19:03:45.315
182.0, -1730744.25, -1776727.125, -3047522.4375, -4500000.375, -4500000.375, -2433769.6875, -2659025.8125, -2334264.5625, -4500000.375, -4500000.375, -4500000.375, -4500000.375, -4500000.375, -4500000.375, -4500000.375, -4500000.375, 0.10600000619888306, 0.685000017285347, 0.30500001460313797, 192.0, 0.0, 0.0, 0.0, 0.0, 0.0, 0.0, 0.0, 0.0, 0.0, 1.629939825315416E9, 2021-08-25 19:03:45.315
184.0, -1730409.0, -1823510.0625, -3038748.9375, -4500000.375, -4500000.375, -2428110.1875, -2628440.0625, -2326516.125, -4500000.375, -4500000.375, -4500000.375, -4500000.375, -4500000.375, -4500000.375, -4500000.375, -4500000.375, 0.10600000619888306, 0.685000017285347, 0.30500001460313797, 192.0, 0.0, 0.0, 0.0, 0.0, 0.0, 0.0, 0.0, 0.0, 0.0, 1.6299398253154223E9, 2021-08-25 19:03:45.315
186.0, -1726819.125, -1761593.4375, -3047943.9375, -4500000.375, -4500000.375, -2424296.0625, -2649056.625, -2334341.25, -4500000.375, -4500000.375, -4500000.375, -4500000.375, -4500000.375, -4500000.375, -4500000.375, -4500000.375, 0.10600000619888306, 0.685000017285347, 0.30500001460313797, 192.0, 0.0, 0.0, 0.0, 0.0, 0.0, 0.0, 0.0, 0.0, 0.0, 1.6299398253154292E9, 2021-08-25 19:03:45.315
188.0, -1734940.875, -1837437.75, -3039551.4375, -4500000.375, -4500000.375, -2438151.75, -2640173.0625, -2327224.125, -4500000.375, -4500000.375, -4500000.375, -4500000.375, -4500000.375, -4500000.375, -4500000.375, -4500000.375, 0.12000000476837158, 0.9120000600814819, 0.40800002217292786, 192.0, 1.5, 96.0, 14.0, 64.0, 6.0, 96.0, 0.0, 0.0, 0.0, 1.6299398253154356E9, 2021-08-25 19:03:45.315
190.0, -1723412.25, -1750419.375, -3047688.1875, -4500000.375, -4500000.375, -2415609.9375, -2637528.375, -2334123.375, -4500000.375, -4500000.375, -4500000.375, -4500000.375, -4500000.375, -4500000.375, -4500000.375, -4500000.375, 0.12000000476837158, 0.9120000600814819, 0.40800002217292786, 192.0, 0.0, 0.0, 0.0, 0.0, 0.0, 0.0, 0.0, 0.0, 0.0, 1.6299398253154423E9, 2021-08-25 19:03:45.315
192.0, -1738076.4375, -1847196.1875, -3039632.4375, -4500000.375, -4500000.375, -2446365.1875, -2649877.875, -2327016.0, -4500000.375, -4500000.375, -4500000.375, -4500000.375, -4500000.375, -4500000.375, -4500000.375, -4500000.375, 0.12000000476837158, 0.9120000600814819, 0.40800002217292786, 192.0, 0.0, 0.0, 0.0, 0.0, 0.0, 0.0, 0.0, 0.0, 0.0, 1.6299398253154488E9, 2021-08-25 19:03:45.315
194.0, -1719447.9375, -1740374.0625, -3046642.6875, -4500000.375, -4500000.375, -2406629.4375, -2626109.8125, -2332686.75, -4500000.375, -4500000.375, -4500000.375, -4500000.375, -4500000.375, -4500000.375, -4500000.375, -4500000.375, 0.12000000476837158, 0.9120000600814819, 0.40800002217292786, 192.0, 0.0, 0.0, 0.0, 0.0, 0.0, 0.0, 0.0, 0.0, 0.0, 1.6299398253154557E9, 2021-08-25 19:03:45.315
196.0, -1741306.3125, -1855370.4375, -3040671.0, -4500000.375, -4500000.375, -2454284.25, -2661432.375, -2327496.1875, -4500000.375, -4500000.375, -4500000.375, -4500000.375, -4500000.375, -4500000.375, -4500000.375, -4500000.375, 0.12000000476837158, 0.9120000600814819, 0.40800002217292786, 192.0, 0.0, 0.0, 0.0, 0.0, 0.0, 0.0, 0.0, 0.0, 0.0, 1.629939825315466E9, 2021-08-25 19:03:45.315
198.0, -1717154.625, -1736958.9375, -3045892.125, -4500000.375, -4500000.375, -2400347.0625, -2616748.875, -2332186.3125, -4500000.375, -4500000.375, -4500000.375, -4500000.375, -4500000.375, -4500000.375, -4500000.375, -4500000.375, 0.1080000028014183, 0.9140000343322754, 0.406000018119812, 192.0, 1.5, 48.0, 14.0, 72.0, 6.0, 88.0, 0.0, 0.0, 0.0, 1.6299398253154724E9, 2021-08-25 19:03:45.315
200.0, -1743382.875, -1858422.9375, -3041635.5, -4500000.375, -4500000.375, -2459598.75, -2669908.6875, -2328421.5, -4500000.375, -4500000.375, -4500000.375, -4500000.375, -4500000.375, -4500000.375, -4500000.375, -4500000.375, 0.1080000028014183, 0.9140000343322754, 0.406000018119812, 192.0, 0.0, 0.0, 0.0, 0.0, 0.0, 0.0, 0.0, 0.0, 0.0, 1.6299398253154793E9, 2021-08-25 19:03:45.315
202.0, -1714946.0625, -1733958.1875, -3044774.25, -4500000.375, -4500000.375, -2394687.1875, -2607877.6875, -2331306.5625, -4500000.375, -4500000.375, -4500000.375, -4500000.375, -4500000.375, -4500000.375, -4500000.375, -4500000.375, 0.1080000028014183, 0.9140000343322754, 0.406000018119812, 192.0, 0.0, 0.0, 0.0, 0.0, 0.0, 0.0, 0.0, 0.0, 0.0, 1.6299398253154857E9, 2021-08-25 19:03:45.315
204.0, -1745211.5625, -1858102.125, -3043178.8125, -4500000.375, -4500000.375, -2464146.75, -2677839.375, -2329943.4375, -4500000.375, -4500000.375, -4500000.375, -4500000.375, -4500000.375, -4500000.375, -4500000.375, -4500000.375, 0.1080000028014183, 0.9140000343322754, 0.406000018119812, 192.0, 0.0, 0.0, 0.0, 0.0, 0.0, 0.0, 0.0, 0.0, 0.0, 1.6299398253154922E9, 2021-08-25 19:03:45.315
206.0, -1714443.5625, -1738050.1875, -3044291.4375, -4500000.375, -4500000.375, -2392989.375, -2602755.75, -2330689.125, -4500000.375, -4500000.375, -4500000.375, -4500000.375, -4500000.375, -4500000.375, -4500000.375, -4500000.375, 0.1080000028014183, 0.9140000343322754, 0.406000018119812, 192.0, 0.0, 0.0, 0.0, 0.0, 0.0, 0.0, 0.0, 0.0, 0.0, 1.6299398253154988E9, 2021-08-25 19:03:45.315
208.0, -1745169.1875, -1852747.3125, -3044319.375, -4500000.375, -4500000.375, -2465456.0625, -2682110.0625, -2330780.25, -4500000.375, -4500000.375, -4500000.375, -4500000.375, -4500000.375, -4500000.375, -4500000.375, -4500000.375, 0.10400000214576721, 0.9220000505447388, 0.39400002360343933, 192.0, 1.5, 32.0, 14.0, 104.0, 6.0, 40.0, 0.0, 0.0, 0.0, 1.6299398253155055E9, 2021-08-25 19:03:45.315
210.0, -1714181.625, -1743661.3125, -3043214.8125, -4500000.375, -4500000.375, -2392519.875, -2598965.25, -2329827.0, -4500000.375, -4500000.375, -4500000.375, -4500000.375, -4500000.375, -4500000.375, -4500000.375, -4500000.375, 0.10400000214576721, 0.9220000505447388, 0.39400002360343933, 192.0, 0.0, 0.0, 0.0, 0.0, 0.0, 0.0, 0.0, 0.0, 0.0, 1.629939825315512E9, 2021-08-25 19:03:45.315
212.0, -1745069.4375, -1844864.8125, -3046082.625, -4500000.375, -4500000.375, -2465669.0625, -2685195.5625, -2332793.0625, -4500000.375, -4500000.375, -4500000.375, -4500000.375, -4500000.375, -4500000.375, -4500000.375, -4500000.375, 0.10400000214576721, 0.9220000505447388, 0.39400002360343933, 192.0, 0.0, 0.0, 0.0, 0.0, 0.0, 0.0, 0.0, 0.0, 0.0, 1.6299398253155186E9, 2021-08-25 19:03:45.315
214.0, -1715868.1875, -1754895.0, -3041763.1875, -4500000.375, -4500000.375, -2395095.375, -2598198.75, -2329148.4375, -4500000.375, -4500000.375, -4500000.375, -4500000.375, -4500000.375, -4500000.375, -4500000.375, -4500000.375, 0.10400000214576721, 0.9220000505447388, 0.39400002360343933, 192.0, 0.0, 0.0, 0.0, 0.0, 0.0, 0.0, 0.0, 0.0, 0.0, 1.6299398253155253E9, 2021-08-25 19:03:45.315
216.0, -1743280.5, -1833109.3125, -3046791.1875, -4500000.375, -4500000.375, -2461798.125, -2683877.0625, -2333330.4375, -4500000.375, -4500000.375, -4500000.375, -4500000.375, -4500000.375, -4500000.375, -4500000.375, -4500000.375, 0.10400000214576721, 0.9220000505447388, 0.39400002360343933, 192.0, 0.0, 0.0, 0.0, 0.0, 0.0, 0.0, 0.0, 0.0, 0.0, 1.6299398253155317E9, 2021-08-25 19:03:45.315
218.0, -1717571.4375, -1766132.8125, -3040706.8125, -4500000.375, -4500000.375, -2398923.9375, -2600008.125, -2328317.4375, -4500000.375, -4500000.375, -4500000.375, -4500000.375, -4500000.375, -4500000.375, -4500000.375, -4500000.375, 0.10600000619888306, 0.9260000586509705, 0.3880000114440918, 192.0, 1.5, 40.0, 14.0, 120.0, 6.0, 16.0, 0.0, 0.0, 0.0, 1.6299398253155384E9, 2021-08-25 19:03:45.315
220.0, -1740804.1875, -1819212.1875, -3047325.5625, -4500000.375, -4500000.375, -2456596.3125, -2680595.625, -2333831.625, -4500000.375, -4500000.375, -4500000.375, -4500000.375, -4500000.375, -4500000.375, -4500000.375, -4500000.375, 0.10600000619888306, 0.9260000586509705, 0.3880000114440918, 192.0, 0.0, 0.0, 0.0, 0.0, 0.0, 0.0, 0.0, 0.0, 0.0, 1.629939825315545E9, 2021-08-25 19:03:45.315
222.0, -1720661.4375, -1782589.3125, -3040005.75, -4500000.375, -4500000.375, -2405491.125, -2605028.625, -2327687.25, -4500000.375, -4500000.375, -4500000.375, -4500000.375, -4500000.375, -4500000.375, -4500000.375, -4500000.375, 0.10600000619888306, 0.9260000586509705, 0.3880000114440918, 192.0, 0.0, 0.0, 0.0, 0.0, 0.0, 0.0, 0.0, 0.0, 0.0, 1.6299398253155515E9, 2021-08-25 19:03:45.315
224.0, -1737360.1875, -1804249.6875, -3047770.6875, -4500000.375, -4500000.375, -2449059.1875, -2674361.625, -2334061.125, -4500000.375, -4500000.375, -4500000.375, -4500000.375, -4500000.375, -4500000.375, -4500000.375, -4500000.375, 0.10600000619888306, 0.9260000586509705, 0.3880000114440918, 192.0, 0.0, 0.0, 0.0, 0.0, 0.0, 0.0, 0.0, 0.0, 0.0, 1.6299398253155584E9, 2021-08-25 19:03:45.315
226.0, -1723608.0, -1796177.8125, -3039704.25, -4500000.375, -4500000.375, -2412398.25, -2611677.375, -2327231.25, -4500000.375, -4500000.375, -4500000.375, -4500000.375, -4500000.375, -4500000.375, -4500000.375, -4500000.375, 0.10600000619888306, 0.9260000586509705, 0.3880000114440918, 192.0, 0.0, 0.0, 0.0, 0.0, 0.0, 0.0, 0.0, 0.0, 0.0, 1.629939825315565E9, 2021-08-25 19:03:45.315
228.0, -1733955.375, -1787257.875, -3048894.0, -4500000.375, -4500000.375, -2441018.625, -2666816.625, -2335017.5625, -4500000.375, -4500000.375, -4500000.375, -4500000.375, -4500000.375, -4500000.375, -4500000.375, -4500000.375, 0.11600000411272049, 0.9380000233650208, 0.38200002908706665, 192.0, 1.5, 80.0, 14.5, 40.0, 5.5, 120.0, 0.0, 0.0, 0.0, 1.6299398253155715E9, 2021-08-25 19:03:45.315
230.0, -1728036.9375, -1813581.75, -3039631.875, -4500000.375, -4500000.375, -2422304.25, -2621775.375, -2327232.75, -4500000.375, -4500000.375, -4500000.375, -4500000.375, -4500000.375, -4500000.375, -4500000.375, -4500000.375, 0.11600000411272049, 0.9380000233650208, 0.38200002908706665, 192.0, 0.0, 0.0, 0.0, 0.0, 0.0, 0.0, 0.0, 0.0, 0.0, 1.6299398253155808E9, 2021-08-25 19:03:45.315
232.0, -1729930.5, -1772652.75, -3048473.4375, -4500000.375, -4500000.375, -2431777.875, -2656860.75, -2334590.0625, -4500000.375, -4500000.375, -4500000.375, -4500000.375, -4500000.375, -4500000.375, -4500000.375, -4500000.375, 0.11600000411272049, 0.9380000233650208, 0.38200002908706665, 192.0, 0.0, 0.0, 0.0, 0.0, 0.0, 0.0, 0.0, 0.0, 0.0, 1.6299398253155873E9, 2021-08-25 19:03:45.315
234.0, -1731714.75, -1827360.1875, -3039617.4375, -4500000.375, -4500000.375, -2431223.0625, -2631198.0, -2327094.375, -4500000.375, -4500000.375, -4500000.375, -4500000.375, -4500000.375, -4500000.375, -4500000.375, -4500000.375, 0.11600000411272049, 0.9380000233650208, 0.38200002908706665, 192.0, 0.0, 0.0, 0.0, 0.0, 0.0, 0.0, 0.0, 0.0, 0.0, 1.629939825315594E9, 2021-08-25 19:03:45.315
236.0, -1725791.4375, -1758060.9375, -3048579.75, -4500000.375, -4500000.375, -2422341.75, -2645706.5625, -2334405.5625, -4500000.375, -4500000.375, -4500000.375, -4500000.375, -4500000.375, -4500000.375, -4500000.375, -4500000.375, 0.11700000613927841, 0.9410000443458557, 0.3790000230073929, 192.0, 1.5, 88.0, 14.5, 64.0, 5.5, 96.0, 0.0, 0.0, 0.0, 1.6299398253156006E9, 2021-08-25 19:03:45.315
238.0, -1735857.1875, -1840458.9375, -3040135.125, -4500000.375, -4500000.375, -2440680.0, -2642764.6875, -2327366.8125, -4500000.375, -4500000.375, -4500000.375, -4500000.375, -4500000.375, -4500000.375, -4500000.375, -4500000.375, 0.11700000613927841, 0.9410000443458557, 0.3790000230073929, 192.0, 0.0, 0.0, 0.0, 0.0, 0.0, 0.0, 0.0, 0.0, 0.0, 1.6299398253156073E9, 2021-08-25 19:03:45.315
240.0, -1722503.4375, -1748005.5, -3048097.5, -4500000.375, -4500000.375, -2413455.5625, -2635216.3125, -2334175.5, -4500000.375, -4500000.375, -4500000.375, -4500000.375, -4500000.375, -4500000.375, -4500000.375, -4500000.375, 0.11700000613927841, 0.9410000443458557, 0.3790000230073929, 192.0, 0.0, 0.0, 0.0, 0.0, 0.0, 0.0, 0.0, 0.0, 0.0, 1.6299398253156137E9, 2021-08-25 19:03:45.315
242.0, -1739088.1875, -1849005.0, -3040738.5, -4500000.375, -4500000.375, -2448459.0, -2653097.0625, -2327889.9375, -4500000.375, -4500000.375, -4500000.375, -4500000.375, -4500000.375, -4500000.375, -4500000.375, -4500000.375, 0.11700000613927841, 0.9410000443458557, 0.3790000230073929, 192.0, 0.0, 0.0, 0.0, 0.0, 0.0, 0.0, 0.0, 0.0, 0.0, 1.6299398253156204E9, 2021-08-25 19:03:45.315
244.0, -1719166.875, -1739185.6875, -3047264.8125, -4500000.375, -4500000.375, -2405480.4375, -2624463.375, -2333220.0, -4500000.375, -4500000.375, -4500000.375, -4500000.375, -4500000.375, -4500000.375, -4500000.375, -4500000.375, 0.11700000613927841, 0.9410000443458557, 0.3790000230073929, 192.0, 0.0, 0.0, 0.0, 0.0, 0.0, 0.0, 0.0, 0.0, 0.0, 1.629939825315627E9, 2021-08-25 19:03:45.315
246.0, -1742585.25, -1856780.8125, -3041748.75, -4500000.375, -4500000.375, -2456398.3125, -2663995.5, -2328803.4375, -4500000.375, -4500000.375, -4500000.375, -4500000.375, -4500000.375, -4500000.375, -4500000.375, -4500000.375, 0.12550000473856926, 0.9415000379085541, 0.377500019967556, 192.0, 2.0, 24.0, 14.5, 56.0, 5.5, 96.0, 0.0, 0.0, 0.0, 1.6299398253156345E9, 2021-08-25 19:03:45.315
248.0, -1717193.8125, -1735468.6875, -3046572.375, -4500000.375, -4500000.375, -2399307.0, -2615156.0625, -2332821.375, -4500000.375, -4500000.375, -4500000.375, -4500000.375, -4500000.375, -4500000.375, -4500000.375, -4500000.375, 0.12550000473856926, 0.9415000379085541, 0.377500019967556, 192.0, 0.0, 0.0, 0.0, 0.0, 0.0, 0.0, 0.0, 0.0, 0.0, 1.6299398253156412E9, 2021-08-25 19:03:45.315
250.0, -1744839.375, -1858086.5625, -3043256.0625, -4500000.375, -4500000.375, -2461700.4375, -2672782.875, -2329828.6875, -4500000.375, -4500000.375, -4500000.375, -4500000.375, -4500000.375, -4500000.375, -4500000.375, -4500000.375, 0.12550000473856926, 0.9415000379085541, 0.377500019967556, 192.0, 0.0, 0.0, 0.0, 0.0, 0.0, 0.0, 0.0, 0.0, 0.0, 1.6299398253156478E9, 2021-08-25 19:03:45.315
252.0, -1715744.8125, -1734679.125, -3045530.0625, -4500000.375, -4500000.375, -2395189.3125, -2607851.4375, -2331771.0, -4500000.375, -4500000.375, -4500000.375, -4500000.375, -4500000.375, -4500000.375, -4500000.375, -4500000.375, 0.12550000473856926, 0.9415000379085541, 0.377500019967556, 192.0, 0.0, 0.0, 0.0, 0.0, 0.0, 0.0, 0.0, 0.0, 0.0, 1.6299398253156545E9, 2021-08-25 19:03:45.315
254.0, -1745970.75, -1855727.8125, -3044338.6875, -4500000.375, -4500000.375, -2465049.0, -2679389.625, -2330876.25, -4500000.375, -4500000.375, -4500000.375, -4500000.375, -4500000.375, -4500000.375, -4500000.375, -4500000.375, 0.12550000473856926, 0.9415000379085541, 0.377500019967556, 192.0, 0.0, 0.0, 0.0, 0.0, 0.0, 0.0, 0.0, 0.0, 0.0, 1.629939825315661E9, 2021-08-25 19:03:45.315
0.0, -1715316.1875, -1739513.0625, -3044158.875, -4500000.375, -4500000.375, -2393524.125, -2602195.6875, -2330682.5625, -4500000.375, -4500000.375, -4500000.375, -4500000.375, -4500000.375, -4500000.375, -4500000.375, -4500000.375, 0.1307500060647726, 0.9377500265836716, 0.37275002524256706, 192.0, 2.0, 32.0, 14.5, 24.0, 5.5, 64.0, 0.0, 0.0, 0.0, 1.6299398253156676E9, 2021-08-25 19:03:45.315
2.0, -1745772.75, -1850249.0625, -3045237.75, -4500000.375, -4500000.375, -2465564.0625, -2682575.625, -2331370.3125, -4500000.375, -4500000.375, -4500000.375, -4500000.375, -4500000.375, -4500000.375, -4500000.375, -4500000.375, 0.1307500060647726, 0.9377500265836716, 0.37275002524256706, 192.0, 0.0, 0.0, 0.0, 0.0, 0.0, 0.0, 0.0, 0.0, 0.0, 1.6299398253156743E9, 2021-08-25 19:03:45.315
4.0, -1715118.9375, -1745212.6875, -3043319.8125, -4500000.375, -4500000.375, -2393243.0625, -2598941.625, -2329438.125, -4500000.375, -4500000.375, -4500000.375, -4500000.375, -4500000.375, -4500000.375, -4500000.375, -4500000.375, 0.1307500060647726, 0.9377500265836716, 0.37275002524256706, 192.0, 0.0, 0.0, 0.0, 0.0, 0.0, 0.0, 0.0, 0.0, 0.0, 1.6299398253156807E9, 2021-08-25 19:03:45.315
6.0, -1744962.75, -1840616.8125, -3046642.6875, -4500000.375, -4500000.375, -2464473.375, -2684434.3125, -2332078.5, -4500000.375, -4500000.375, -4500000.375, -4500000.375, -4500000.375, -4500000.375, -4500000.375, -4500000.375, 0.1307500060647726, 0.9377500265836716, 0.37275002524256706, 192.0, 0.0, 0.0, 0.0, 0.0, 0.0, 0.0, 0.0, 0.0, 0.0, 1.6299398253156872E9, 2021-08-25 19:03:45.315
8.0, -1716559.6875, -1757273.4375, -3042225.0, -4500000.375, -4500000.375, -2396450.4375, -2598863.8125, -2328307.875, -4500000.375, -4500000.375, -4500000.375, -4500000.375, -4500000.375, -4500000.375, -4500000.375, -4500000.375, 0.1307500060647726, 0.9377500265836716, 0.37275002524256706, 192.0, 0.0, 0.0, 0.0, 0.0, 0.0, 0.0, 0.0, 0.0, 0.0, 1.6299398253156958E9, 2021-08-25 19:03:45.315
10.0, -1742731.125, -1829025.75, -3047430.1875, -4500000.375, -4500000.375, -2460539.0625, -2682458.0625, -2332695.375, -4500000.375, -4500000.375, -4500000.375, -4500000.375, -4500000.375, -4500000.375, -4500000.375, -4500000.375, 0.13237500470131636, 0.942875050008297, 0.36937502585351467, 192.0, 2.0, 24.0, 14.5, 80.0, 5.5, 56.0, 0.0, 0.0, 0.0, 1.6299398253157024E9, 2021-08-25 19:03:45.315
12.0, -1718356.875, -1768683.5625, -3041423.625, -4500000.375, -4500000.375, -2400666.9375, -2600984.4375, -2327718.1875, -4500000.375, -4500000.375, -4500000.375, -4500000.375, -4500000.375, -4500000.375, -4500000.375, -4500000.375, 0.13237500470131636, 0.942875050008297, 0.36937502585351467, 192.0, 0.0, 0.0, 0.0, 0.0, 0.0, 0.0, 0.0, 0.0, 0.0, 1.629939825315709E9, 2021-08-25 19:03:45.315
14.0, -1740249.0, -1813755.5625, -3048470.8125, -4500000.375, -4500000.375, -2455142.0625, -2678620.5, -2333859.9375, -4500000.375, -4500000.375, -4500000.375, -4500000.375, -4500000.375, -4500000.375, -4500000.375, -4500000.375, 0.13237500470131636, 0.942875050008297, 0.36937502585351467, 192.0, 0.0, 0.0, 0.0, 0.0, 0.0, 0.0, 0.0, 0.0, 0.0, 1.629939825315716E9, 2021-08-25 19:03:45.315
16.0, -1721867.25, -1784622.9375, -3040641.375, -4500000.375, -4500000.375, -2407823.0625, -2606717.4375, -2327527.3125, -4500000.375, -4500000.375, -4500000.375, -4500000.375, -4500000.375, -4500000.375, -4500000.375, -4500000.375, 0.13237500470131636, 0.942875050008297, 0.36937502585351467, 192.0, 0.0, 0.0, 0.0, 0.0, 0.0, 0.0, 0.0, 0.0, 0.0, 1.6299398253157227E9, 2021-08-25 19:03:45.315
18.0, -1737060.375, -1798316.625, -3048930.0, -4500000.375, -4500000.375, -2447440.3125, -2671863.9375, -2334424.3125, -4500000.375, -4500000.375, -4500000.375, -4500000.375, -4500000.375, -4500000.375, -4500000.375, -4500000.375, 0.13237500470131636, 0.942875050008297, 0.36937502585351467, 192.0, 0.0, 0.0, 0.0, 0.0, 0.0, 0.0, 0.0, 0.0, 0.0, 1.6299398253157291E9, 2021-08-25 19:03:45.315
20.0, -1725275.8125, -1798845.5625, -3040281.0, -4500000.375, -4500000.375, -2415372.9375, -2613546.75, -2327346.5625, -4500000.375, -4500000.375, -4500000.375, -4500000.375, -4500000.375, -4500000.375, -4500000.375, -4500000.375, 0.13018750539049506, 0.9434375576674938, 0.36668752413243055, 192.0, 2.0, 0.0, 14.5, 64.0, 5.5, 48.0, 0.0, 0.0, 0.0, 1.629939825315736E9, 2021-08-25 19:03:45.315
22.0, -1733423.25, -1781802.375, -3049200.9375, -4500000.375, -4500000.375, -2438825.625, -2663119.5, -2334946.3125, -4500000.375, -4500000.375, -4500000.375, -4500000.375, -4500000.375, -4500000.375, -4500000.375, -4500000.375, 0.13018750539049506, 0.9434375576674938, 0.36668752413243055, 192.0, 0.0, 0.0, 0.0, 0.0, 0.0, 0.0, 0.0, 0.0, 0.0, 1.6299398253157425E9, 2021-08-25 19:03:45.315
24.0, -1729452.0, -1815287.0625, -3039689.25, -4500000.375, -4500000.375, -2424504.75, -2622988.6875, -2326665.1875, -4500000.375, -4500000.375, -4500000.375, -4500000.375, -4500000.375, -4500000.375, -4500000.375, -4500000.375, 0.13018750539049506, 0.9434375576674938, 0.36668752413243055, 192.0, 0.0, 0.0, 0.0, 0.0, 0.0, 0.0, 0.0, 0.0, 0.0, 1.6299398253157492E9, 2021-08-25 19:03:45.315
26.0, -1729555.125, -1767419.8125, -3049386.5625, -4500000.375, -4500000.375, -2429494.125, -2653008.0, -2334332.0625, -4500000.375, -4500000.375, -4500000.375, -4500000.375, -4500000.375, -4500000.375, -4500000.375, -4500000.375, 0.13018750539049506, 0.9434375576674938, 0.36668752413243055, 192.0, 0.0, 0.0, 0.0, 0.0, 0.0, 0.0, 0.0, 0.0, 0.0, 1.6299398253157556E9, 2021-08-25 19:03:45.315
0.0, -884276.0625, -954853.03125, -1530395.625, -2250000.1875, -2250000.1875, -1247682.75, -1333140.5625, -1164862.03125, -2250000.1875, -2250000.1875, -2250000.1875, -2250000.1875, -2250000.1875, -2250000.1875, -2250000.1875, -2250000.1875, 0.10609375382773578, 0.9427187945693731, 0.3783437698148191, 192.0, 1.0, 72.0, 14.5, 56.0, 6.0, 24.0, 0.0, 0.0, 0.0, 1.6299398259107816E9, 2021-08-25 19:03:45.910
2.0, -1741015.5, -1828544.625, -3058640.625, -4500000.375, -4500000.375, -2441757.75, -2604786.1875, -2326932.375, -4500000.375, -4500000.375, -4500000.375, -4500000.375, -4500000.375, -4500000.375, -4500000.375, -4500000.375, 0.10609375382773578, 0.9427187945693731, 0.3783437698148191, 192.0, 0.0, 0.0, 0.0, 0.0, 0.0, 0.0, 0.0, 0.0, 0.0, 1.6299398259108684E9, 2021-08-25 19:03:45.910
4.0, -1756869.5625, -1851877.125, -3063844.125, -4500000.375, -4500000.375, -2475208.125, -2651916.375, -2332213.125, -4500000.375, -4500000.375, -4500000.375, -4500000.375, -4500000.375, -4500000.375, -4500000.375, -4500000.375, 0.10609375382773578, 0.9427187945693731, 0.3783437698148191, 192.0, 0.0, 0.0, 0.0, 0.0, 0.0, 0.0, 0.0, 0.0, 0.0, 1.6299398259108756E9, 2021-08-25 19:03:45.910
6.0, -1743708.0, -1841211.1875, -3058361.8125, -4500000.375, -4500000.375, -2447173.6875, -2609049.375, -2326700.625, -4500000.375, -4500000.375, -4500000.375, -4500000.375, -4500000.375, -4500000.375, -4500000.375, -4500000.375, 0.10609375382773578, 0.9427187945693731, 0.3783437698148191, 192.0, 0.0, 0.0, 0.0, 0.0, 0.0, 0.0, 0.0, 0.0, 0.0, 1.6299398259108825E9, 2021-08-25 19:03:45.910
8.0, -1753597.875, -1838098.125, -3064674.5625, -4500000.375, -4500000.375, -2469579.1875, -2646458.625, -2332677.75, -4500000.375, -4500000.375, -4500000.375, -4500000.375, -4500000.375, -4500000.375, -4500000.375, -4500000.375, 0.07000000029802322, 0.9240000247955322, 0.4100000262260437, 192.0, 1.0, 24.0, 14.0, 112.0, 6.0, 104.0, 0.0, 0.0, 0.0, 1.6299398259108894E9, 2021-08-25 19:03:45.910
10.0, -1747119.75, -1854066.375, -3058095.5625, -4500000.375, -4500000.375, -2453445.75, -2614036.125, -2326531.125, -4500000.375, -4500000.375, -4500000.375, -4500000.375, -4500000.375, -4500000.375, -4500000.375, -4500000.375, 0.07000000029802322, 0.9240000247955322, 0.4100000262260437, 192.0, 0.0, 0.0, 0.0, 0.0, 0.0, 0.0, 0.0, 0.0, 0.0, 1.6299398259108963E9, 2021-08-25 19:03:45.910
12.0, -1750251.0, -1824327.1875, -3064475.625, -4500000.375, -4500000.375, -2463079.125, -2639568.0, -2332805.8125, -4500000.375, -4500000.375, -4500000.375, -4500000.375, -4500000.375, -4500000.375, -4500000.375, -4500000.375, 0.07000000029802322, 0.9240000247955322, 0.4100000262260437, 192.0, 0.0, 0.0, 0.0, 0.0, 0.0, 0.0, 0.0, 0.0, 0.0, 1.6299398259109187E9, 2021-08-25 19:03:45.910
14.0, -1750771.3125, -1866115.5, -3057071.0625, -4500000.375, -4500000.375, -2460015.0, -2620514.0625, -2326304.8125, -4500000.375, -4500000.375, -4500000.375, -4500000.375, -4500000.375, -4500000.375, -4500000.375, -4500000.375, 0.07000000029802322, 0.9240000247955322, 0.4100000262260437, 192.0, 0.0, 0.0, 0.0, 0.0, 0.0, 0.0, 0.0, 0.0, 0.0, 1.6299398259109251E9, 2021-08-25 19:03:45.910
16.0, -1747165.875, -1812061.875, -3064259.4375, -4500000.375, -4500000.375, -2456457.375, -2632296.0, -2332688.4375, -4500000.375, -4500000.375, -4500000.375, -4500000.375, -4500000.375, -4500000.375, -4500000.375, -4500000.375, 0.061000000685453415, 0.9290000200271606, 0.41700002551078796, 192.0, 0.5, 80.0, 14.5, 24.0, 6.5, 32.0, 0.0, 0.0, 0.0, 1.6299398259109468E9, 2021-08-25 19:03:45.910
18.0, -1754664.1875, -1876385.625, -3057555.375, -4500000.375, -4500000.375, -2466606.75, -2627992.125, -2326884.5625, -4500000.375, -4500000.375, -4500000.375, -4500000.375, -4500000.375, -4500000.375, -4500000.375, -4500000.375, 0.061000000685453415, 0.9290000200271606, 0.41700002551078796, 192.0, 0.0, 0.0, 0.0, 0.0, 0.0, 0.0, 0.0, 0.0, 0.0, 1.6299398259109538E9, 2021-08-25 19:03:45.910
20.0, -1744486.875, -1801397.4375, -3064292.0625, -4500000.375, -4500000.375, -2450278.125, -2625445.125, -2332774.6875, -4500000.375, -4500000.375, -4500000.375, -4500000.375, -4500000.375, -4500000.375, -4500000.375, -4500000.375, 0.061000000685453415, 0.9290000200271606, 0.41700002551078796, 192.0, 0.0, 0.0, 0.0, 0.0, 0.0, 0.0, 0.0, 0.0, 0.0, 1.6299398259109807E9, 2021-08-25 19:03:45.910
22.0, -1758202.125, -1884716.625, -3057867.75, -4500000.375, -4500000.375, -2473036.125, -2635632.75, -2327363.0625, -4500000.375, -4500000.375, -4500000.375, -4500000.375, -4500000.375, -4500000.375, -4500000.375, -4500000.375, 0.061000000685453415, 0.9290000200271606, 0.41700002551078796, 192.0, 0.0, 0.0, 0.0, 0.0, 0.0, 0.0, 0.0, 0.0, 0.0, 1.6299398259109876E9, 2021-08-25 19:03:45.910
24.0, -1741527.9375, -1794048.75, -3063478.3125, -4500000.375, -4500000.375, -2444217.9375, -2618188.6875, -2331853.125, -4500000.375, -4500000.375, -4500000.375, -4500000.375, -4500000.375, -4500000.375, -4500000.375, -4500000.375, 0.061000000685453415, 0.9290000200271606, 0.41700002551078796, 192.0, 0.0, 0.0, 0.0, 0.0, 0.0, 0.0, 0.0, 0.0, 0.0, 1.6299398259109943E9, 2021-08-25 19:03:45.910
26.0, -1760583.375, -1890328.875, -3058172.4375, -4500000.375, -4500000.375, -2477968.6875, -2642330.0625, -2327364.75, -4500000.375, -4500000.375, -4500000.375, -4500000.375, -4500000.375, -4500000.375, -4500000.375, -4500000.375, 0.048500001430511475, 0.9275000393390656, 0.4245000183582306, 192.0, 0.5, 16.0, 14.0, 120.0, 6.5, 64.0, 0.0, 0.0, 0.0, 1.6299398259110012E9, 2021-08-25 19:03:45.911
28.0, -1739153.625, -1788716.4375, -3063741.1875, -4500000.375, -4500000.375, -2439431.8125, -2611750.3125, -2331770.625, -4500000.375, -4500000.375, -4500000.375, -4500000.375, -4500000.375, -4500000.375, -4500000.375, -4500000.375, 0.048500001430511475, 0.9275000393390656, 0.4245000183582306, 192.0, 0.0, 0.0, 0.0, 0.0, 0.0, 0.0, 0.0, 0.0, 0.0, 1.6299398259110081E9, 2021-08-25 19:03:45.911
30.0, -1762836.375, -1892279.8125, -3059398.125, -4500000.375, -4500000.375, -2482539.75, -2648551.875, -2328500.4375, -4500000.375, -4500000.375, -4500000.375, -4500000.375, -4500000.375, -4500000.375, -4500000.375, -4500000.375, 0.048500001430511475, 0.9275000393390656, 0.4245000183582306, 192.0, 0.0, 0.0, 0.0, 0.0, 0.0, 0.0, 0.0, 0.0, 0.0, 1.629939825911016E9, 2021-08-25 19:03:45.911
32.0, -1737657.0, -1787767.5, -3062636.625, -4500000.375, -4500000.375, -2436078.9375, -2605860.75, -2330567.8125, -4500000.375, -4500000.375, -4500000.375, -4500000.375, -4500000.375, -4500000.375, -4500000.375, -4500000.375, 0.048500001430511475, 0.9275000393390656, 0.4245000183582306, 192.0, 0.0, 0.0, 0.0, 0.0, 0.0, 0.0, 0.0, 0.0, 0.0, 1.629939825911023E9, 2021-08-25 19:03:45.911
34.0, -1764004.3125, -1891274.0625, -3060009.75, -4500000.375, -4500000.375, -2485284.1875, -2652624.0, -2328957.9375, -4500000.375, -4500000.375, -4500000.375, -4500000.375, -4500000.375, -4500000.375, -4500000.375, -4500000.375, 0.048500001430511475, 0.9275000393390656, 0.4245000183582306, 192.0, 0.0, 0.0, 0.0, 0.0, 0.0, 0.0, 0.0, 0.0, 0.0, 1.6299398259110296E9, 2021-08-25 19:03:45.911
36.0, -1737027.75, -1789617.1875, -3062215.5, -4500000.375, -4500000.375, -2434222.3125, -2601906.5625, -2330389.6875, -4500000.375, -4500000.375, -4500000.375, -4500000.375, -4500000.375, -4500000.375, -4500000.375, -4500000.375, 0.04025000147521496, 0.926750048995018, 0.43425002694129944, 192.0, 0.5, 0.0, 14.0, 120.0, 6.5, 112.0, 0.0, 0.0, 0.0, 1.6299398259110365E9, 2021-08-25 19:03:45.911
38.0, -1764419.4375, -1886890.6875, -3060862.6875, -4500000.375, -4500000.375, -2486311.3125, -2655876.9375, -2330022.75, -4500000.375, -4500000.375, -4500000.375, -4500000.375, -4500000.375, -4500000.375, -4500000.375, -4500000.375, 0.04025000147521496, 0.926750048995018, 0.43425002694129944, 192.0, 0.0, 0.0, 0.0, 0.0, 0.0, 0.0, 0.0, 0.0, 0.0, 1.6299398259110432E9, 2021-08-25 19:03:45.911
40.0, -1736884.5, -1795630.6875, -3060764.4375, -4500000.375, -4500000.375, -2433819.5625, -2599375.125, -2329034.625, -4500000.375, -4500000.375, -4500000.375, -4500000.375, -4500000.375, -4500000.375, -4500000.375, -4500000.375, 0.04025000147521496, 0.926750048995018, 0.43425002694129944, 192.0, 0.0, 0.0, 0.0, 0.0, 0.0, 0.0, 0.0, 0.0, 0.0, 1.62993982591105E9, 2021-08-25 19:03:45.911
42.0, -1763594.4375, -1879317.1875, -3062222.4375, -4500000.375, -4500000.375, -2485570.5, -2657169.1875, -2331148.3125, -4500000.375, -4500000.375, -4500000.375, -4500000.375, -4500000.375, -4500000.375, -4500000.375, -4500000.375, 0.04025000147521496, 0.926750048995018, 0.43425002694129944, 192.0, 0.0, 0.0, 0.0, 0.0, 0.0, 0.0, 0.0, 0.0, 0.0, 1.6299398259110568E9, 2021-08-25 19:03:45.911
44.0, -1737890.25, -1803360.9375, -3060632.4375, -4500000.375, -4500000.375, -2435588.0625, -2599392.75, -2328993.375, -4500000.375, -4500000.375, -4500000.375, -4500000.375, -4500000.375, -4500000.375, -4500000.375, -4500000.375, 0.04025000147521496, 0.926750048995018, 0.43425002694129944, 192.0, 0.0, 0.0, 0.0, 0.0, 0.0, 0.0, 0.0, 0.0, 0.0, 1.6299398259110637E9, 2021-08-25 19:03:45.911
46.0, -1761973.3125, -1868941.3125, -3063031.5, -4500000.375, -4500000.375, -2483245.6875, -2656907.4375, -2332045.125, -4500000.375, -4500000.375, -4500000.375, -4500000.375, -4500000.375, -4500000.375, -4500000.375, -4500000.375, 0.04212500248104334, 0.9223750457167625, 0.4481250196695328, 192.0, 0.5, 48.0, 14.0, 88.0, 7.0, 56.0, 0.0, 0.0, 0.0, 1.6299398259110703E9, 2021-08-25 19:03:45.911
48.0, -1739526.375, -1814345.625, -3059367.5625, -4500000.375, -4500000.375, -2438412.0, -2600480.625, -2328034.6875, -4500000.375, -4500000.375, -4500000.375, -4500000.375, -4500000.375, -4500000.375, -4500000.375, -4500000.375, 0.04212500248104334, 0.9223750457167625, 0.4481250196695328, 192.0, 0.0, 0.0, 0.0, 0.0, 0.0, 0.0, 0.0, 0.0, 0.0, 1.6299398259110773E9, 2021-08-25 19:03:45.911
50.0, -1759671.375, -1857420.75, -3063412.3125, -4500000.375, -4500000.375, -2479138.125, -2653649.625, -2332218.9375, -4500000.375, -4500000.375, -4500000.375, -4500000.375, -4500000.375, -4500000.375, -4500000.375, -4500000.375, 0.04212500248104334, 0.9223750457167625, 0.4481250196695328, 192.0, 0.0, 0.0, 0.0, 0.0, 0.0, 0.0, 0.0, 0.0, 0.0, 1.629939825911101E9, 2021-08-25 19:03:45.911
52.0, -1741998.9375, -1826589.375, -3058846.125, -4500000.375, -4500000.375, -2442636.0, -2603164.5, -2327434.5, -4500000.375, -4500000.375, -4500000.375, -4500000.375, -4500000.375, -4500000.375, -4500000.375, -4500000.375, 0.04212500248104334, 0.9223750457167625, 0.4481250196695328, 192.0, 0.0, 0.0, 0.0, 0.0, 0.0, 0.0, 0.0, 0.0, 0.0, 1.6299398259111078E9, 2021-08-25 19:03:45.911
54.0, -1756740.75, -1844271.0, -3064190.625, -4500000.375, -4500000.375, -2474112.1875, -2649431.625, -2332851.9375, -4500000.375, -4500000.375, -4500000.375, -4500000.375, -4500000.375, -4500000.375, -4500000.375, -4500000.375, 0.04212500248104334, 0.9223750457167625, 0.4481250196695328, 192.0, 0.0, 0.0, 0.0, 0.0, 0.0, 0.0, 0.0, 0.0, 0.0, 1.6299398259111145E9, 2021-08-25 19:03:45.911
56.0, -1744893.5625, -1840061.0625, -3058093.5, -4500000.375, -4500000.375, -2448475.6875, -2608372.3125, -2326800.375, -4500000.375, -4500000.375, -4500000.375, -4500000.375, -4500000.375, -4500000.375, -4500000.375, -4500000.375, 0.06800000369548798, 0.8940000534057617, 0.46000000834465027, 192.0, 1.0, 16.0, 13.5, 120.0, 7.0, 48.0, 0.0, 0.0, 0.0, 1.629939825911121E9, 2021-08-25 19:03:45.911
58.0, -1753433.625, -1831026.75, -3064516.875, -4500000.375, -4500000.375, -2468239.125, -2644043.0625, -2333094.5625, -4500000.375, -4500000.375, -4500000.375, -4500000.375, -4500000.375, -4500000.375, -4500000.375, -4500000.375, 0.06800000369548798, 0.8940000534057617, 0.46000000834465027, 192.0, 0.0, 0.0, 0.0, 0.0, 0.0, 0.0, 0.0, 0.0, 0.0, 1.6299398259111283E9, 2021-08-25 19:03:45.911
60.0, -1748242.5, -1853165.25, -3057634.3125, -4500000.375, -4500000.375, -2454586.6875, -2614228.6875, -2326546.6875, -4500000.375, -4500000.375, -4500000.375, -4500000.375, -4500000.375, -4500000.375, -4500000.375, -4500000.375, 0.06800000369548798, 0.8940000534057617, 0.46000000834465027, 192.0, 0.0, 0.0, 0.0, 0.0, 0.0, 0.0, 0.0, 0.0, 0.0, 1.6299398259111347E9, 2021-08-25 19:03:45.911
62.0, -1749799.3125, -1818389.8125, -3064354.875, -4500000.375, -4500000.375, -2461567.5, -2637148.125, -2333080.5, -4500000.375, -4500000.375, -4500000.375, -4500000.375, -4500000.375, -4500000.375, -4500000.375, -4500000.375, 0.06800000369548798, 0.8940000534057617, 0.46000000834465027, 192.0, 0.0, 0.0, 0.0, 0.0, 0.0, 0.0, 0.0, 0.0, 0.0, 1.6299398259111416E9, 2021-08-25 19:03:45.911
64.0, -1751492.8125, -1865662.6875, -3057525.9375, -4500000.375, -4500000.375, -2461428.5625, -2621010.375, -2326632.5625, -4500000.375, -4500000.375, -4500000.375, -4500000.375, -4500000.375, -4500000.375, -4500000.375, -4500000.375, 0.06800000369548798, 0.8940000534057617, 0.46000000834465027, 192.0, 0.0, 0.0, 0.0, 0.0, 0.0, 0.0, 0.0, 0.0, 0.0, 1.6299398259111488E9, 2021-08-25 19:03:45.911
66.0, -1746234.0, -1806929.8125, -3064611.75, -4500000.375, -4500000.375, -2455066.3125, -2629951.3125, -2333125.125, -4500000.375, -4500000.375, -4500000.375, -4500000.375, -4500000.375, -4500000.375, -4500000.375, -4500000.375, 0.08400000631809235, 0.8920000195503235, 0.46000000834465027, 192.0, 1.0, 80.0, 13.5, 112.0, 7.0, 48.0, 0.0, 0.0, 0.0, 1.6299398259111557E9, 2021-08-25 19:03:45.911
68.0, -1754884.6875, -1876214.4375, -3057478.125, -4500000.375, -4500000.375, -2467990.3125, -2628408.9375, -2326635.1875, -4500000.375, -4500000.375, -4500000.375, -4500000.375, -4500000.375, -4500000.375, -4500000.375, -4500000.375, 0.08400000631809235, 0.8920000195503235, 0.46000000834465027, 192.0, 0.0, 0.0, 0.0, 0.0, 0.0, 0.0, 0.0, 0.0, 0.0, 1.629939825911162E9, 2021-08-25 19:03:45.911
70.0, -1742655.0, -1797670.3125, -3064218.5625, -4500000.375, -4500000.375, -2448502.5, -2622287.0625, -2332320.9375, -4500000.375, -4500000.375, -4500000.375, -4500000.375, -4500000.375, -4500000.375, -4500000.375, -4500000.375, 0.08400000631809235, 0.8920000195503235, 0.46000000834465027, 192.0, 0.0, 0.0, 0.0, 0.0, 0.0, 0.0, 0.0, 0.0, 0.0, 1.6299398259111688E9, 2021-08-25 19:03:45.911
72.0, -1757706.9375, -1884272.4375, -3057717.375, -4500000.375, -4500000.375, -2474047.3125, -2635863.375, -2326888.3125, -4500000.375, -4500000.375, -4500000.375, -4500000.375, -4500000.375, -4500000.375, -4500000.375, -4500000.375, 0.08400000631809235, 0.8920000195503235, 0.46000000834465027, 192.0, 0.0, 0.0, 0.0, 0.0, 0.0, 0.0, 0.0, 0.0, 0.0, 1.6299398259111753E9, 2021-08-25 19:03:45.911
74.0, -1739794.125, -1790955.5625, -3063469.6875, -4500000.375, -4500000.375, -2442717.9375, -2614845.5625, -2331819.375, -4500000.375, -4500000.375, -4500000.375, -4500000.375, -4500000.375, -4500000.375, -4500000.375, -4500000.375, 0.08400000631809235, 0.8920000195503235, 0.46000000834465027, 192.0, 0.0, 0.0, 0.0, 0.0, 0.0, 0.0, 0.0, 0.0, 0.0, 1.629939825911182E9, 2021-08-25 19:03:45.911
76.0, -1760317.875, -1889389.5, -3057909.0, -4500000.375, -4500000.375, -2479011.0, -2642267.4375, -2327682.375, -4500000.375, -4500000.375, -4500000.375, -4500000.375, -4500000.375, -4500000.375, -4500000.375, -4500000.375, 0.09000000357627869, 0.8960000276565552, 0.4660000205039978, 192.0, 1.0, 104.0, 14.0, 0.0, 7.0, 72.0, 0.0, 0.0, 0.0, 1.6299398259111884E9, 2021-08-25 19:03:45.911
78.0, -1737709.5, -1787035.875, -3063004.6875, -4500000.375, -4500000.375, -2438045.0625, -2608727.4375, -2331682.5, -4500000.375, -4500000.375, -4500000.375, -4500000.375, -4500000.375, -4500000.375, -4500000.375, -4500000.375, 0.09000000357627869, 0.8960000276565552, 0.4660000205039978, 192.0, 0.0, 0.0, 0.0, 0.0, 0.0, 0.0, 0.0, 0.0, 0.0, 1.6299398259111953E9, 2021-08-25 19:03:45.911
80.0, -1762264.125, -1890760.6875, -3059268.9375, -4500000.375, -4500000.375, -2483224.6875, -2648660.25, -2328865.6875, -4500000.375, -4500000.375, -4500000.375, -4500000.375, -4500000.375, -4500000.375, -4500000.375, -4500000.375, 0.09000000357627869, 0.8960000276565552, 0.4660000205039978, 192.0, 0.0, 0.0, 0.0, 0.0, 0.0, 0.0, 0.0, 0.0, 0.0, 1.6299398259112017E9, 2021-08-25 19:03:45.911
82.0, -1736302.875, -1787058.375, -3062471.4375, -4500000.375, -4500000.375, -2435336.625, -2603333.4375, -2330812.5, -4500000.375, -4500000.375, -4500000.375, -4500000.375, -4500000.375, -4500000.375, -4500000.375, -4500000.375, 0.09000000357627869, 0.8960000276565552, 0.4660000205039978, 192.0, 0.0, 0.0, 0.0, 0.0, 0.0, 0.0, 0.0, 0.0, 0.0, 1.6299398259112084E9, 2021-08-25 19:03:45.911
84.0, -1763592.1875, -1888995.75, -3060663.0, -4500000.375, -4500000.375, -2486040.5625, -2653208.0625, -2329985.8125, -4500000.375, -4500000.375, -4500000.375, -4500000.375, -4500000.375, -4500000.375, -4500000.375, -4500000.375, 0.09000000357627869, 0.8960000276565552, 0.4660000205039978, 192.0, 0.0, 0.0, 0.0, 0.0, 0.0, 0.0, 0.0, 0.0, 0.0, 1.6299398259112165E9, 2021-08-25 19:03:45.911
86.0, -1736264.25, -1789838.8125, -3062116.3125, -4500000.375, -4500000.375, -2434188.0, -2600011.3125, -2330395.6875, -4500000.375, -4500000.375, -4500000.375, -4500000.375, -4500000.375, -4500000.375, -4500000.375, -4500000.375, 0.09800000488758087, 0.8940000534057617, 0.4740000367164612, 192.0, 1.5, 8.0, 13.5, 120.0, 7.0, 104.0, 0.0, 0.0, 0.0, 1.6299398259112232E9, 2021-08-25 19:03:45.911
88.0, -1764080.4375, -1884078.75, -3061248.9375, -4500000.375, -4500000.375, -2486989.5, -2655978.375, -2330653.6875, -4500000.375, -4500000.375, -4500000.375, -4500000.375, -4500000.375, -4500000.375, -4500000.375, -4500000.375, 0.09800000488758087, 0.8940000534057617, 0.4740000367164612, 192.0, 0.0, 0.0, 0.0, 0.0, 0.0, 0.0, 0.0, 0.0, 0.0, 1.6299398259112298E9, 2021-08-25 19:03:45.911
90.0, -1736568.9375, -1796358.1875, -3060630.9375, -4500000.375, -4500000.375, -2434281.375, -2597824.3125, -2329045.5, -4500000.375, -4500000.375, -4500000.375, -4500000.375, -4500000.375, -4500000.375, -4500000.375, -4500000.375, 0.09800000488758087, 0.8940000534057617, 0.4740000367164612, 192.0, 0.0, 0.0, 0.0, 0.0, 0.0, 0.0, 0.0, 0.0, 0.0, 1.6299398259112363E9, 2021-08-25 19:03:45.911
92.0, -1762837.5, -1876140.9375, -3061525.6875, -4500000.375, -4500000.375, -2485524.375, -2656514.25, -2331098.4375, -4500000.375, -4500000.375, -4500000.375, -4500000.375, -4500000.375, -4500000.375, -4500000.375, -4500000.375, 0.09800000488758087, 0.8940000534057617, 0.4740000367164612, 192.0, 0.0, 0.0, 0.0, 0.0, 0.0, 0.0, 0.0, 0.0, 0.0, 1.6299398259112427E9, 2021-08-25 19:03:45.911
94.0, -1737224.625, -1805115.0, -3059691.5625, -4500000.375, -4500000.375, -2435936.8125, -2597556.0, -2328270.75, -4500000.375, -4500000.375, -4500000.375, -4500000.375, -4500000.375, -4500000.375, -4500000.375, -4500000.375, 0.09800000488758087, 0.8940000534057617, 0.4740000367164612, 192.0, 0.0, 0.0, 0.0, 0.0, 0.0, 0.0, 0.0, 0.0, 0.0, 1.6299398259112496E9, 2021-08-25 19:03:45.911
96.0, -1760709.375, -1865838.0, -3062335.125, -4500000.375, -4500000.375, -2482873.875, -2655186.5625, -2331814.5, -4500000.375, -4500000.375, -4500000.375, -4500000.375, -4500000.375, -4500000.375, -4500000.375, -4500000.375, 0.1080000028014183, 0.8840000629425049, 0.4780000150203705, 192.0, 1.5, 48.0, 13.5, 80.0, 7.0, 120.0, 0.0, 0.0, 0.0, 1.629939825911256E9, 2021-08-25 19:03:45.911
98.0, -1739218.5, -1816317.0, -3059014.5, -4500000.375, -4500000.375, -2439436.5, -2599462.5, -2327750.4375, -4500000.375, -4500000.375, -4500000.375, -4500000.375, -4500000.375, -4500000.375, -4500000.375, -4500000.375, 0.1080000028014183, 0.8840000629425049, 0.4780000150203705, 192.0, 0.0, 0.0, 0.0, 0.0, 0.0, 0.0, 0.0, 0.0, 0.0, 1.6299398259112628E9, 2021-08-25 19:03:45.911
100.0, -1758780.9375, -1853708.625, -3063423.0, -4500000.375, -4500000.375, -2478837.75, -2652671.625, -2332756.5, -4500000.375, -4500000.375, -4500000.375, -4500000.375, -4500000.375, -4500000.375, -4500000.375, -4500000.375, 0.1080000028014183, 0.8840000629425049, 0.4780000150203705, 192.0, 0.0, 0.0, 0.0, 0.0, 0.0, 0.0, 0.0, 0.0, 0.0, 1.6299398259112692E9, 2021-08-25 19:03:45.911
102.0, -1741825.125, -1828994.25, -3058319.4375, -4500000.375, -4500000.375, -2444171.8125, -2603895.1875, -2327227.5, -4500000.375, -4500000.375, -4500000.375, -4500000.375, -4500000.375, -4500000.375, -4500000.375, -4500000.375, 0.1080000028014183, 0.8840000629425049, 0.4780000150203705, 192.0, 0.0, 0.0, 0.0, 0.0, 0.0, 0.0, 0.0, 0.0, 0.0, 1.6299398259112759E9, 2021-08-25 19:03:45.911
104.0, -1755567.1875, -1840837.125, -3063813.5625, -4500000.375, -4500000.375, -2473504.875, -2649013.125, -2333222.25, -4500000.375, -4500000.375, -4500000.375, -4500000.375, -4500000.375, -4500000.375, -4500000.375, -4500000.375, 0.10700000450015068, 0.8870000541210175, 0.4790000170469284, 192.0, 1.5, 40.0, 13.5, 104.0, 7.5, 0.0, 0.0, 0.0, 0.0, 1.6299398259112823E9, 2021-08-25 19:03:45.911
106.0, -1744962.75, -1842448.6875, -3057822.0, -4500000.375, -4500000.375, -2450173.5, -2609165.25, -2326875.5625, -4500000.375, -4500000.375, -4500000.375, -4500000.375, -4500000.375, -4500000.375, -4500000.375, -4500000.375, 0.10700000450015068, 0.8870000541210175, 0.4790000170469284, 192.0, 0.0, 0.0, 0.0, 0.0, 0.0, 0.0, 0.0, 0.0, 0.0, 1.629939825911289E9, 2021-08-25 19:03:45.911
108.0, -1752133.3125, -1827851.625, -3064462.125, -4500000.375, -4500000.375, -2467391.0625, -2643448.125, -2333471.625, -4500000.375, -4500000.375, -4500000.375, -4500000.375, -4500000.375, -4500000.375, -4500000.375, -4500000.375, 0.10700000450015068, 0.8870000541210175, 0.4790000170469284, 192.0, 0.0, 0.0, 0.0, 0.0, 0.0, 0.0, 0.0, 0.0, 0.0, 1.6299398259112957E9, 2021-08-25 19:03:45.911
110.0, -1748156.25, -1855734.1875, -3057300.1875, -4500000.375, -4500000.375, -2456558.8125, -2615773.6875, -2326425.0, -4500000.375, -4500000.375, -4500000.375, -4500000.375, -4500000.375, -4500000.375, -4500000.375, -4500000.375, 0.10700000450015068, 0.8870000541210175, 0.4790000170469284, 192.0, 0.0, 0.0, 0.0, 0.0, 0.0, 0.0, 0.0, 0.0, 0.0, 1.629939825911302E9, 2021-08-25 19:03:45.911
112.0, -1748111.625, -1815581.0625, -3064714.3125, -4500000.375, -4500000.375, -2460612.0, -2636316.1875, -2333482.3125, -4500000.375, -4500000.375, -4500000.375, -4500000.375, -4500000.375, -4500000.375, -4500000.375, -4500000.375, 0.10700000450015068, 0.8870000541210175, 0.4790000170469284, 192.0, 0.0, 0.0, 0.0, 0.0, 0.0, 0.0, 0.0, 0.0, 0.0, 1.6299398259113088E9, 2021-08-25 19:03:45.911
114.0, -1751351.25, -1867473.1875, -3057669.1875, -4500000.375, -4500000.375, -2463520.125, -2623204.875, -2326884.1875, -4500000.375, -4500000.375, -4500000.375, -4500000.375, -4500000.375, -4500000.375, -4500000.375, -4500000.375, 0.11150000430643559, 0.884500041604042, 0.4815000221133232, 192.0, 1.5, 80.0, 13.5, 72.0, 7.5, 16.0, 0.0, 0.0, 0.0, 1.6299398259113154E9, 2021-08-25 19:03:45.911
116.0, -1744384.5, -1805008.3125, -3064160.625, -4500000.375, -4500000.375, -2453936.625, -2628776.4375, -2332969.5, -4500000.375, -4500000.375, -4500000.375, -4500000.375, -4500000.375, -4500000.375, -4500000.375, -4500000.375, 0.11150000430643559, 0.884500041604042, 0.4815000221133232, 192.0, 0.0, 0.0, 0.0, 0.0, 0.0, 0.0, 0.0, 0.0, 0.0, 1.629939825911322E9, 2021-08-25 19:03:45.911
118.0, -1754434.6875, -1877388.75, -3057661.6875, -4500000.375, -4500000.375, -2469713.8125, -2630223.1875, -2327078.25, -4500000.375, -4500000.375, -4500000.375, -4500000.375, -4500000.375, -4500000.375, -4500000.375, -4500000.375, 0.11150000430643559, 0.884500041604042, 0.4815000221133232, 192.0, 0.0, 0.0, 0.0, 0.0, 0.0, 0.0, 0.0, 0.0, 0.0, 1.6299398259113305E9, 2021-08-25 19:03:45.911
120.0, -1740926.4375, -1795944.5625, -3064057.125, -4500000.375, -4500000.375, -2447633.4375, -2620954.5, -2333072.4375, -4500000.375, -4500000.375, -4500000.375, -4500000.375, -4500000.375, -4500000.375, -4500000.375, -4500000.375, 0.11150000430643559, 0.884500041604042, 0.4815000221133232, 192.0, 0.0, 0.0, 0.0, 0.0, 0.0, 0.0, 0.0, 0.0, 0.0, 1.6299398263920534E9, 2021-08-25 19:03:46.392
122.0, -1757414.0625, -1884836.25, -3058017.9375, -4500000.375, -4500000.375, -2476037.4375, -2637737.625, -2327826.1875, -4500000.375, -4500000.375, -4500000.375, -4500000.375, -4500000.375, -4500000.375, -4500000.375, -4500000.375, 0.11150000430643559, 0.884500041604042, 0.4815000221133232, 192.0, 0.0, 0.0, 0.0, 0.0, 0.0, 0.0, 0.0, 0.0, 0.0, 1.62993982639225E9, 2021-08-25 19:03:46.392
124.0, -1737920.25, -1789931.625, -3063695.0625, -4500000.375, -4500000.375, -2442759.75, -2614266.1875, -2332516.125, -4500000.375, -4500000.375, -4500000.375, -4500000.375, -4500000.375, -4500000.375, -4500000.375, -4500000.375, 0.11775000486522913, 0.8862500563263893, 0.4917500279843807, 192.0, 1.5, 112.0, 13.5, 96.0, 7.5, 88.0, 0.0, 0.0, 0.0, 1.6299398263922567E9, 2021-08-25 19:03:46.392
126.0, -1759335.5625, -1888996.875, -3058855.875, -4500000.375, -4500000.375, -2481593.4375, -2644985.0625, -2328954.1875, -4500000.375, -4500000.375, -4500000.375, -4500000.375, -4500000.375, -4500000.375, -4500000.375, -4500000.375, 0.11775000486522913, 0.8862500563263893, 0.4917500279843807, 192.0, 0.0, 0.0, 0.0, 0.0, 0.0, 0.0, 0.0, 0.0, 0.0, 1.6299398263922637E9, 2021-08-25 19:03:46.392
128.0, -1735230.0, -1787261.625, -3062899.5, -4500000.375, -4500000.375, -2438981.625, -2608068.75, -2331704.625, -4500000.375, -4500000.375, -4500000.375, -4500000.375, -4500000.375, -4500000.375, -4500000.375, -4500000.375, 0.11775000486522913, 0.8862500563263893, 0.4917500279843807, 192.0, 0.0, 0.0, 0.0, 0.0, 0.0, 0.0, 0.0, 0.0, 0.0, 1.629939826392272E9, 2021-08-25 19:03:46.392
130.0, -1760457.75, -1890350.8125, -3059494.6875, -4500000.375, -4500000.375, -2485830.1875, -2650538.25, -2329444.5, -4500000.375, -4500000.375, -4500000.375, -4500000.375, -4500000.375, -4500000.375, -4500000.375, -4500000.375, 0.11775000486522913, 0.8862500563263893, 0.4917500279843807, 192.0, 0.0, 0.0, 0.0, 0.0, 0.0, 0.0, 0.0, 0.0, 0.0, 1.629939826392279E9, 2021-08-25 19:03:46.392
132.0, -1733616.375, -1788182.8125, -3062025.0, -4500000.375, -4500000.375, -2436534.9375, -2603315.8125, -2330896.6875, -4500000.375, -4500000.375, -4500000.375, -4500000.375, -4500000.375, -4500000.375, -4500000.375, -4500000.375, 0.11775000486522913, 0.8862500563263893, 0.4917500279843807, 192.0, 0.0, 0.0, 0.0, 0.0, 0.0, 0.0, 0.0, 0.0, 0.0, 1.629939826392301E9, 2021-08-25 19:03:46.392
134.0, -1761223.3125, -1888221.1875, -3060047.8125, -4500000.375, -4500000.375, -2487701.8125, -2654816.4375, -2330144.0625, -4500000.375, -4500000.375, -4500000.375, -4500000.375, -4500000.375, -4500000.375, -4500000.375, -4500000.375, 0.12387500749900937, 0.8871250636875629, 0.49987502209842205, 192.0, 2.0, 8.0, 13.5, 96.0, 7.5, 112.0, 0.0, 0.0, 0.0, 1.6299398263923075E9, 2021-08-25 19:03:46.392
136.0, -1733927.0625, -1792322.4375, -3060993.5625, -4500000.375, -4500000.375, -2434880.625, -2599730.25, -2329739.0625, -4500000.375, -4500000.375, -4500000.375, -4500000.375, -4500000.375, -4500000.375, -4500000.375, -4500000.375, 0.12387500749900937, 0.8871250636875629, 0.49987502209842205, 192.0, 0.0, 0.0, 0.0, 0.0, 0.0, 0.0, 0.0, 0.0, 0.0, 1.6299398263923142E9, 2021-08-25 19:03:46.392
138.0, -1761855.1875, -1882589.0625, -3060650.8125, -4500000.375, -4500000.375, -2487342.0, -2656584.0, -2330485.6875, -4500000.375, -4500000.375, -4500000.375, -4500000.375, -4500000.375, -4500000.375, -4500000.375, -4500000.375, 0.12387500749900937, 0.8871250636875629, 0.49987502209842205, 192.0, 0.0, 0.0, 0.0, 0.0, 0.0, 0.0, 0.0, 0.0, 0.0, 1.6299398263923209E9, 2021-08-25 19:03:46.392
140.0, -1735001.4375, -1799194.875, -3060207.5625, -4500000.375, -4500000.375, -2435285.0625, -2598110.25, -2328441.375, -4500000.375, -4500000.375, -4500000.375, -4500000.375, -4500000.375, -4500000.375, -4500000.375, -4500000.375, 0.12387500749900937, 0.8871250636875629, 0.49987502209842205, 192.0, 0.0, 0.0, 0.0, 0.0, 0.0, 0.0, 0.0, 0.0, 0.0, 1.6299398263923273E9, 2021-08-25 19:03:46.392
142.0, -1761131.0625, -1873368.1875, -3061974.75, -4500000.375, -4500000.375, -2485908.5625, -2657194.875, -2331389.625, -4500000.375, -4500000.375, -4500000.375, -4500000.375, -4500000.375, -4500000.375, -4500000.375, -4500000.375, 0.12387500749900937, 0.8871250636875629, 0.49987502209842205, 192.0, 0.0, 0.0, 0.0, 0.0, 0.0, 0.0, 0.0, 0.0, 0.0, 1.629939826392334E9, 2021-08-25 19:03:46.392
144.0, -1736778.75, -1808631.375, -3059553.1875, -4500000.375, -4500000.375, -2437884.1875, -2599545.1875, -2328162.9375, -4500000.375, -4500000.375, -4500000.375, -4500000.375, -4500000.375, -4500000.375, -4500000.375, -4500000.375, 0.12793750339187682, 0.874562555924058, 0.499937511049211, 192.0, 2.0, 16.0, 13.0, 120.0, 7.5, 80.0, 0.0, 0.0, 0.0, 1.6299398263923407E9, 2021-08-25 19:03:46.392
146.0, -1759077.0, -1861892.625, -3062685.0, -4500000.375, -4500000.375, -2482356.1875, -2655660.75, -2332375.125, -4500000.375, -4500000.375, -4500000.375, -4500000.375, -4500000.375, -4500000.375, -4500000.375, -4500000.375, 0.12793750339187682, 0.874562555924058, 0.499937511049211, 192.0, 0.0, 0.0, 0.0, 0.0, 0.0, 0.0, 0.0, 0.0, 0.0, 1.629939826392347E9, 2021-08-25 19:03:46.392
148.0, -1739175.0, -1820144.4375, -3058886.8125, -4500000.375, -4500000.375, -2441685.9375, -2602013.8125, -2327681.25, -4500000.375, -4500000.375, -4500000.375, -4500000.375, -4500000.375, -4500000.375, -4500000.375, -4500000.375, 0.12793750339187682, 0.874562555924058, 0.499937511049211, 192.0, 0.0, 0.0, 0.0, 0.0, 0.0, 0.0, 0.0, 0.0, 0.0, 1.6299398263923736E9, 2021-08-25 19:03:46.392
150.0, -1756632.9375, -1849165.5, -3063341.4375, -4500000.375, -4500000.375, -2477682.1875, -2652053.625, -2332601.4375, -4500000.375, -4500000.375, -4500000.375, -4500000.375, -4500000.375, -4500000.375, -4500000.375, -4500000.375, 0.12793750339187682, 0.874562555924058, 0.499937511049211, 192.0, 0.0, 0.0, 0.0, 0.0, 0.0, 0.0, 0.0, 0.0, 0.0, 1.6299398263923805E9, 2021-08-25 19:03:46.392
152.0, -1741931.8125, -1832484.1875, -3058266.75, -4500000.375, -4500000.375, -2446626.5625, -2606077.875, -2326846.5, -4500000.375, -4500000.375, -4500000.375, -4500000.375, -4500000.375, -4500000.375, -4500000.375, -4500000.375, 0.12793750339187682, 0.874562555924058, 0.499937511049211, 192.0, 0.0, 0.0, 0.0, 0.0, 0.0, 0.0, 0.0, 0.0, 0.0, 1.6299398263923945E9, 2021-08-25 19:03:46.392
154.0, -1753620.375, -1836793.5, -3064259.8125, -4500000.375, -4500000.375, -2472280.6875, -2647300.875, -2333118.1875, -4500000.375, -4500000.375, -4500000.375, -4500000.375, -4500000.375, -4500000.375, -4500000.375, -4500000.375, 0.13199999928474426, 0.8440000414848328, 0.492000013589859, 192.0, 2.0, 16.0, 13.0, 48.0, 7.5, 48.0, 0.0, 0.0, 0.0, 1.6299398263924015E9, 2021-08-25 19:03:46.392
156.0, -1745243.25, -1844566.5, -3058252.3125, -4500000.375, -4500000.375, -2452470.0, -2611717.5, -2326849.6875, -4500000.375, -4500000.375, -4500000.375, -4500000.375, -4500000.375, -4500000.375, -4500000.375, -4500000.375, 0.13199999928474426, 0.8440000414848328, 0.492000013589859, 192.0, 0.0, 0.0, 0.0, 0.0, 0.0, 0.0, 0.0, 0.0, 0.0, 1.6299398263924234E9, 2021-08-25 19:03:46.392
158.0, -1750619.4375, -1824139.3125, -3064800.1875, -4500000.375, -4500000.375, -2466098.25, -2641383.9375, -2333352.0, -4500000.375, -4500000.375, -4500000.375, -4500000.375, -4500000.375, -4500000.375, -4500000.375, -4500000.375, 0.13199999928474426, 0.8440000414848328, 0.492000013589859, 192.0, 0.0, 0.0, 0.0, 0.0, 0.0, 0.0, 0.0, 0.0, 0.0, 1.62993982639243E9, 2021-08-25 19:03:46.392
160.0, -1748709.1875, -1856349.0, -3058154.0625, -4500000.375, -4500000.375, -2458907.8125, -2618102.8125, -2326979.625, -4500000.375, -4500000.375, -4500000.375, -4500000.375, -4500000.375, -4500000.375, -4500000.375, -4500000.375, 0.13199999928474426, 0.8440000414848328, 0.492000013589859, 192.0, 0.0, 0.0, 0.0, 0.0, 0.0, 0.0, 0.0, 0.0, 0.0, 1.6299398263924365E9, 2021-08-25 19:03:46.392
162.0, -1747275.375, -1812168.75, -3064830.1875, -4500000.375, -4500000.375, -2459901.375, -2634510.375, -2333362.125, -4500000.375, -4500000.375, -4500000.375, -4500000.375, -4500000.375, -4500000.375, -4500000.375, -4500000.375, 0.13199999928474426, 0.8440000414848328, 0.492000013589859, 192.0, 0.0, 0.0, 0.0, 0.0, 0.0, 0.0, 0.0, 0.0, 0.0, 1.6299398263924432E9, 2021-08-25 19:03:46.392
164.0, -1752154.3125, -1867206.5625, -3057879.375, -4500000.375, -4500000.375, -2465728.125, -2625138.75, -2327135.625, -4500000.375, -4500000.375, -4500000.375, -4500000.375, -4500000.375, -4500000.375, -4500000.375, -4500000.375, 0.13199999928474426, 0.8440000414848328, 0.49400001764297485, 192.0, 2.0, 16.0, 13.0, 48.0, 7.5, 56.0, 0.0, 0.0, 0.0, 1.62993982639245E9, 2021-08-25 19:03:46.392
166.0, -1743970.3125, -1802496.5625, -3064363.5, -4500000.375, -4500000.375, -2453724.1875, -2627395.6875, -2332913.625, -4500000.375, -4500000.375, -4500000.375, -4500000.375, -4500000.375, -4500000.375, -4500000.375, -4500000.375, 0.13199999928474426, 0.8440000414848328, 0.49400001764297485, 192.0, 0.0, 0.0, 0.0, 0.0, 0.0, 0.0, 0.0, 0.0, 0.0, 1.6299398263924565E9, 2021-08-25 19:03:46.392
168.0, -1755197.4375, -1876224.1875, -3057727.125, -4500000.375, -4500000.375, -2471837.625, -2632581.9375, -2327255.8125, -4500000.375, -4500000.375, -4500000.375, -4500000.375, -4500000.375, -4500000.375, -4500000.375, -4500000.375, 0.13199999928474426, 0.8440000414848328, 0.49400001764297485, 192.0, 0.0, 0.0, 0.0, 0.0, 0.0, 0.0, 0.0, 0.0, 0.0, 1.6299398263924632E9, 2021-08-25 19:03:46.392
170.0, -1740706.5, -1794536.4375, -3063743.25, -4500000.375, -4500000.375, -2447463.375, -2619685.3125, -2332365.9375, -4500000.375, -4500000.375, -4500000.375, -4500000.375, -4500000.375, -4500000.375, -4500000.375, -4500000.375, 0.13199999928474426, 0.8440000414848328, 0.49400001764297485, 192.0, 0.0, 0.0, 0.0, 0.0, 0.0, 0.0, 0.0, 0.0, 0.0, 1.6299398263924696E9, 2021-08-25 19:03:46.392
172.0, -1757563.6875, -1880518.875, -3058399.3125, -4500000.375, -4500000.375, -2476893.5625, -2639176.875, -2328173.25, -4500000.375, -4500000.375, -4500000.375, -4500000.375, -4500000.375, -4500000.375, -4500000.375, -4500000.375, 0.13199999928474426, 0.8440000414848328, 0.49400001764297485, 192.0, 0.0, 0.0, 0.0, 0.0, 0.0, 0.0, 0.0, 0.0, 0.0, 1.6299398263924763E9, 2021-08-25 19:03:46.392
174.0, -1738776.5625, -1792353.0, -3062989.6875, -4500000.375, -4500000.375, -2443330.6875, -2613732.375, -2331636.0, -4500000.375, -4500000.375, -4500000.375, -4500000.375, -4500000.375, -4500000.375, -4500000.375, -4500000.375, 0.14000000059604645, 0.8640000224113464, 0.4960000216960907, 192.0, 2.0, 48.0, 13.5, 0.0, 7.5, 64.0, 0.0, 0.0, 0.0, 1.6299398263924828E9, 2021-08-25 19:03:46.392
176.0, -1759427.25, -1883921.0625, -3058996.3125, -4500000.375, -4500000.375, -2480889.5625, -2644925.4375, -2328984.1875, -4500000.375, -4500000.375, -4500000.375, -4500000.375, -4500000.375, -4500000.375, -4500000.375, -4500000.375, 0.14000000059604645, 0.8640000224113464, 0.4960000216960907, 192.0, 0.0, 0.0, 0.0, 0.0, 0.0, 0.0, 0.0, 0.0, 0.0, 1.6299398263924897E9, 2021-08-25 19:03:46.392
178.0, -1737250.875, -1790309.25, -3062643.0, -4500000.375, -4500000.375, -2439755.8125, -2608683.0, -2331630.5625, -4500000.375, -4500000.375, -4500000.375, -4500000.375, -4500000.375, -4500000.375, -4500000.375, -4500000.375, 0.14000000059604645, 0.8640000224113464, 0.4960000216960907, 192.0, 0.0, 0.0, 0.0, 0.0, 0.0, 0.0, 0.0, 0.0, 0.0, 1.629939826392496E9, 2021-08-25 19:03:46.392
180.0, -1760848.875, -1884145.6875, -3059413.125, -4500000.375, -4500000.375, -2483876.4375, -2650184.25, -2329516.5, -4500000.375, -4500000.375, -4500000.375, -4500000.375, -4500000.375, -4500000.375, -4500000.375, -4500000.375, 0.14000000059604645, 0.8640000224113464, 0.4960000216960907, 192.0, 0.0, 0.0, 0.0, 0.0, 0.0, 0.0, 0.0, 0.0, 0.0, 1.6299398263925025E9, 2021-08-25 19:03:46.392
182.0, -1736040.5625, -1791699.75, -3061452.75, -4500000.375, -4500000.375, -2437507.5, -2604905.25, -2330416.125, -4500000.375, -4500000.375, -4500000.375, -4500000.375, -4500000.375, -4500000.375, -4500000.375, -4500000.375, 0.14000000059604645, 0.8640000224113464, 0.4960000216960907, 192.0, 0.0, 0.0, 0.0, 0.0, 0.0, 0.0, 0.0, 0.0, 0.0, 1.6299398263925092E9, 2021-08-25 19:03:46.392
184.0, -1760583.375, -1881299.4375, -3059368.6875, -4500000.375, -4500000.375, -2484949.3125, -2653124.4375, -2329474.125, -4500000.375, -4500000.375, -4500000.375, -4500000.375, -4500000.375, -4500000.375, -4500000.375, -4500000.375, 0.15000000596046448, 0.8660000562667847, 0.49800002574920654, 192.0, 2.0, 88.0, 13.5, 8.0, 7.5, 72.0, 0.0, 0.0, 0.0, 1.629939826392516E9, 2021-08-25 19:03:46.392
186.0, -1735358.8125, -1795754.625, -3060251.625, -4500000.375, -4500000.375, -2436291.375, -2601504.1875, -2329320.0, -4500000.375, -4500000.375, -4500000.375, -4500000.375, -4500000.375, -4500000.375, -4500000.375, -4500000.375, 0.15000000596046448, 0.8660000562667847, 0.49800002574920654, 192.0, 0.0, 0.0, 0.0, 0.0, 0.0, 0.0, 0.0, 0.0, 0.0, 1.6299398263925245E9, 2021-08-25 19:03:46.392
188.0, -1760456.8125, -1875428.0625, -3060257.0625, -4500000.375, -4500000.375, -2484806.625, -2654838.9375, -2330454.75, -4500000.375, -4500000.375, -4500000.375, -4500000.375, -4500000.375, -4500000.375, -4500000.375, -4500000.375, 0.15000000596046448, 0.8660000562667847, 0.49800002574920654, 192.0, 0.0, 0.0, 0.0, 0.0, 0.0, 0.0, 0.0, 0.0, 0.0, 1.629939826392531E9, 2021-08-25 19:03:46.392
190.0, -1736262.1875, -1803019.125, -3059252.25, -4500000.375, -4500000.375, -2437164.75, -2600611.125, -2328588.375, -4500000.375, -4500000.375, -4500000.375, -4500000.375, -4500000.375, -4500000.375, -4500000.375, -4500000.375, 0.15000000596046448, 0.8660000562667847, 0.49800002574920654, 192.0, 0.0, 0.0, 0.0, 0.0, 0.0, 0.0, 0.0, 0.0, 0.0, 1.6299398263925376E9, 2021-08-25 19:03:46.392
192.0, -1759526.0625, -1867671.5625, -3060827.25, -4500000.375, -4500000.375, -2483281.5, -2655061.5, -2331276.5625, -4500000.375, -4500000.375, -4500000.375, -4500000.375, -4500000.375, -4500000.375, -4500000.375, -4500000.375, 0.15000000596046448, 0.8660000562667847, 0.49800002574920654, 192.0, 0.0, 0.0, 0.0, 0.0, 0.0, 0.0, 0.0, 0.0, 0.0, 1.6299398263925452E9, 2021-08-25 19:03:46.392
194.0, -1737927.75, -1812500.25, -3057921.375, -4500000.375, -4500000.375, -2439521.8125, -2601413.0625, -2327797.6875, -4500000.375, -4500000.375, -4500000.375, -4500000.375, -4500000.375, -4500000.375, -4500000.375, -4500000.375, 0.14400000870227814, 0.8680000305175781, 0.5040000081062317, 192.0, 2.0, 64.0, 13.5, 16.0, 7.5, 96.0, 0.0, 0.0, 0.0, 1.6299398263925517E9, 2021-08-25 19:03:46.392
196.0, -1757964.9375, -1857611.25, -3061565.4375, -4500000.375, -4500000.375, -2480099.4375, -2653539.5625, -2331877.3125, -4500000.375, -4500000.375, -4500000.375, -4500000.375, -4500000.375, -4500000.375, -4500000.375, -4500000.375, 0.14400000870227814, 0.8680000305175781, 0.5040000081062317, 192.0, 0.0, 0.0, 0.0, 0.0, 0.0, 0.0, 0.0, 0.0, 0.0, 1.6299398263925583E9, 2021-08-25 19:03:46.392
198.0, -1740157.3125, -1822946.8125, -3057738.9375, -4500000.375, -4500000.375, -2443469.625, -2604243.375, -2327312.8125, -4500000.375, -4500000.375, -4500000.375, -4500000.375, -4500000.375, -4500000.375, -4500000.375, -4500000.375, 0.14400000870227814, 0.8680000305175781, 0.5040000081062317, 192.0, 0.0, 0.0, 0.0, 0.0, 0.0, 0.0, 0.0, 0.0, 0.0, 1.6299398263925836E9, 2021-08-25 19:03:46.392
200.0, -1755519.9375, -1846267.125, -3062361.9375, -4500000.375, -4500000.375, -2476070.25, -2650143.375, -2332283.4375, -4500000.375, -4500000.375, -4500000.375, -4500000.375, -4500000.375, -4500000.375, -4500000.375, -4500000.375, 0.14400000870227814, 0.8680000305175781, 0.5040000081062317, 192.0, 0.0, 0.0, 0.0, 0.0, 0.0, 0.0, 0.0, 0.0, 0.0, 1.6299398263925903E9, 2021-08-25 19:03:46.392
202.0, -1742719.875, -1834301.8125, -3057444.375, -4500000.375, -4500000.375, -2448588.75, -2608426.5, -2327009.625, -4500000.375, -4500000.375, -4500000.375, -4500000.375, -4500000.375, -4500000.375, -4500000.375, -4500000.375, 0.13900000602006912, 0.8740000426769257, 0.49800001084804535, 192.0, 2.0, 24.0, 13.5, 64.0, 7.5, 48.0, 0.0, 0.0, 0.0, 1.6299398263925972E9, 2021-08-25 19:03:46.392
204.0, -1752791.625, -1834257.1875, -3062865.75, -4500000.375, -4500000.375, -2471129.0625, -2645832.0, -2332878.75, -4500000.375, -4500000.375, -4500000.375, -4500000.375, -4500000.375, -4500000.375, -4500000.375, -4500000.375, 0.13900000602006912, 0.8740000426769257, 0.49800001084804535, 192.0, 0.0, 0.0, 0.0, 0.0, 0.0, 0.0, 0.0, 0.0, 0.0, 1.629939826392604E9, 2021-08-25 19:03:46.392
206.0, -1745979.75, -1846102.875, -3057080.25, -4500000.375, -4500000.375, -2454404.4375, -2613853.6875, -2326952.8125, -4500000.375, -4500000.375, -4500000.375, -4500000.375, -4500000.375, -4500000.375, -4500000.375, -4500000.375, 0.13900000602006912, 0.8740000426769257, 0.49800001084804535, 192.0, 0.0, 0.0, 0.0, 0.0, 0.0, 0.0, 0.0, 0.0, 0.0, 1.6299398263926108E9, 2021-08-25 19:03:46.392
208.0, -1749846.5625, -1822587.0, -3062996.625, -4500000.375, -4500000.375, -2465324.25, -2640051.375, -2332903.5, -4500000.375, -4500000.375, -4500000.375, -4500000.375, -4500000.375, -4500000.375, -4500000.375, -4500000.375, 0.13900000602006912, 0.8740000426769257, 0.49800001084804535, 192.0, 0.0, 0.0, 0.0, 0.0, 0.0, 0.0, 0.0, 0.0, 0.0, 1.6299398263926177E9, 2021-08-25 19:03:46.392
210.0, -1748917.3125, -1857543.0, -3056289.0, -4500000.375, -4500000.375, -2460160.3125, -2619906.9375, -2326398.5625, -4500000.375, -4500000.375, -4500000.375, -4500000.375, -4500000.375, -4500000.375, -4500000.375, -4500000.375, 0.13900000602006912, 0.8740000426769257, 0.49800001084804535, 192.0, 0.0, 0.0, 0.0, 0.0, 0.0, 0.0, 0.0, 0.0, 0.0, 1.6299398263926373E9, 2021-08-25 19:03:46.392
212.0, -1746344.625, -1812011.4375, -3062903.8125, -4500000.375, -4500000.375, -2458960.875, -2633488.5, -2332552.6875, -4500000.375, -4500000.375, -4500000.375, -4500000.375, -4500000.375, -4500000.375, -4500000.375, -4500000.375, 0.12850000709295273, 0.8830000311136246, 0.4950000122189522, 192.0, 1.5, 88.0, 13.5, 112.0, 7.5, 48.0, 0.0, 0.0, 0.0, 1.629939826392662E9, 2021-08-25 19:03:46.392
214.0, -1751776.125, -1867313.8125, -3056809.3125, -4500000.375, -4500000.375, -2466571.875, -2627016.9375, -2326910.4375, -4500000.375, -4500000.375, -4500000.375, -4500000.375, -4500000.375, -4500000.375, -4500000.375, -4500000.375, 0.12850000709295273, 0.8830000311136246, 0.4950000122189522, 192.0, 0.0, 0.0, 0.0, 0.0, 0.0, 0.0, 0.0, 0.0, 0.0, 1.6299398263926687E9, 2021-08-25 19:03:46.392
216.0, -1742717.625, -1802643.5625, -3063173.625, -4500000.375, -4500000.375, -2453122.875, -2626712.8125, -2332563.375, -4500000.375, -4500000.375, -4500000.375, -4500000.375, -4500000.375, -4500000.375, -4500000.375, -4500000.375, 0.12850000709295273, 0.8830000311136246, 0.4950000122189522, 192.0, 0.0, 0.0, 0.0, 0.0, 0.0, 0.0, 0.0, 0.0, 0.0, 1.6299398263926756E9, 2021-08-25 19:03:46.392
218.0, -1754133.1875, -1875318.0, -3056956.3125, -4500000.375, -4500000.375, -2472318.9375, -2633881.6875, -2327064.9375, -4500000.375, -4500000.375, -4500000.375, -4500000.375, -4500000.375, -4500000.375, -4500000.375, -4500000.375, 0.12850000709295273, 0.8830000311136246, 0.4950000122189522, 192.0, 0.0, 0.0, 0.0, 0.0, 0.0, 0.0, 0.0, 0.0, 0.0, 1.6299398263926823E9, 2021-08-25 19:03:46.392
220.0, -1739487.75, -1796021.25, -3062682.1875, -4500000.375, -4500000.375, -2447383.875, -2619792.0, -2331615.5625, -4500000.375, -4500000.375, -4500000.375, -4500000.375, -4500000.375, -4500000.375, -4500000.375, -4500000.375, 0.12850000709295273, 0.8830000311136246, 0.4950000122189522, 192.0, 0.0, 0.0, 0.0, 0.0, 0.0, 0.0, 0.0, 0.0, 0.0, 1.6299398263926911E9, 2021-08-25 19:03:46.392
222.0, -1756325.625, -1880602.5, -3057873.5625, -4500000.375, -4500000.375, -2477300.8125, -2640461.25, -2327661.375, -4500000.375, -4500000.375, -4500000.375, -4500000.375, -4500000.375, -4500000.375, -4500000.375, -4500000.375, 0.12025000527501106, 0.8885000422596931, 0.4895000196993351, 192.0, 1.5, 64.0, 13.5, 120.0, 7.5, 16.0, 0.0, 0.0, 0.0, 1.629939826392698E9, 2021-08-25 19:03:46.392
224.0, -1737106.5, -1791792.9375, -3062203.125, -4500000.375, -4500000.375, -2442763.5, -2613399.375, -2331026.4375, -4500000.375, -4500000.375, -4500000.375, -4500000.375, -4500000.375, -4500000.375, -4500000.375, -4500000.375, 0.12025000527501106, 0.8885000422596931, 0.4895000196993351, 192.0, 0.0, 0.0, 0.0, 0.0, 0.0, 0.0, 0.0, 0.0, 0.0, 1.6299398263927047E9, 2021-08-25 19:03:46.392
226.0, -1757963.4375, -1883595.375, -3058239.375, -4500000.375, -4500000.375, -2480915.8125, -2646086.8125, -2328129.1875, -4500000.375, -4500000.375, -4500000.375, -4500000.375, -4500000.375, -4500000.375, -4500000.375, -4500000.375, 0.12025000527501106, 0.8885000422596931, 0.4895000196993351, 192.0, 0.0, 0.0, 0.0, 0.0, 0.0, 0.0, 0.0, 0.0, 0.0, 1.6299398263927116E9, 2021-08-25 19:03:46.392
228.0, -1735591.6875, -1790598.375, -3061607.8125, -4500000.375, -4500000.375, -2439104.4375, -2608335.375, -2330730.9375, -4500000.375, -4500000.375, -4500000.375, -4500000.375, -4500000.375, -4500000.375, -4500000.375, -4500000.375, 0.12025000527501106, 0.8885000422596931, 0.4895000196993351, 192.0, 0.0, 0.0, 0.0, 0.0, 0.0, 0.0, 0.0, 0.0, 0.0, 1.6299398263927193E9, 2021-08-25 19:03:46.392
230.0, -1759336.6875, -1883385.1875, -3058804.875, -4500000.375, -4500000.375, -2483574.5625, -2650649.25, -2328558.375, -4500000.375, -4500000.375, -4500000.375, -4500000.375, -4500000.375, -4500000.375, -4500000.375, -4500000.375, 0.12025000527501106, 0.8885000422596931, 0.4895000196993351, 192.0, 0.0, 0.0, 0.0, 0.0, 0.0, 0.0, 0.0, 0.0, 0.0, 1.6299398263927264E9, 2021-08-25 19:03:46.392
232.0, -1734912.5625, -1792534.3125, -3060554.25, -4500000.375, -4500000.375, -2437134.75, -2604379.125, -2329501.875, -4500000.375, -4500000.375, -4500000.375, -4500000.375, -4500000.375, -4500000.375, -4500000.375, -4500000.375, 0.10912500508129597, 0.8902500309050083, 0.48275001533329487, 192.0, 1.5, 8.0, 13.5, 112.0, 7.0, 112.0, 0.0, 0.0, 0.0, 1.629939826392733E9, 2021-08-25 19:03:46.392
234.0, -1760014.6875, -1880211.0, -3059503.3125, -4500000.375, -4500000.375, -2484748.6875, -2653785.375, -2329752.375, -4500000.375, -4500000.375, -4500000.375, -4500000.375, -4500000.375, -4500000.375, -4500000.375, -4500000.375, 0.10912500508129597, 0.8902500309050083, 0.48275001533329487, 192.0, 0.0, 0.0, 0.0, 0.0, 0.0, 0.0, 0.0, 0.0, 0.0, 1.629939826392753E9, 2021-08-25 19:03:46.392
236.0, -1735305.1875, -1797231.0, -3060052.5, -4500000.375, -4500000.375, -2435578.5, -2602107.1875, -2329217.0625, -4500000.375, -4500000.375, -4500000.375, -4500000.375, -4500000.375, -4500000.375, -4500000.375, -4500000.375, 0.10912500508129597, 0.8902500309050083, 0.48275001533329487, 192.0, 0.0, 0.0, 0.0, 0.0, 0.0, 0.0, 0.0, 0.0, 0.0, 1.6299398263927596E9, 2021-08-25 19:03:46.392
238.0, -1759958.4375, -1873937.8125, -3060773.0625, -4500000.375, -4500000.375, -2481987.1875, -2655525.5625, -2330651.0625, -4500000.375, -4500000.375, -4500000.375, -4500000.375, -4500000.375, -4500000.375, -4500000.375, -4500000.375, 0.10912500508129597, 0.8902500309050083, 0.48275001533329487, 192.0, 0.0, 0.0, 0.0, 0.0, 0.0, 0.0, 0.0, 0.0, 0.0, 1.6299398263927665E9, 2021-08-25 19:03:46.392
240.0, -1736295.375, -1804836.0, -3058940.0625, -4500000.375, -4500000.375, -2434693.3125, -2601603.0, -2327810.625, -4500000.375, -4500000.375, -4500000.375, -4500000.375, -4500000.375, -4500000.375, -4500000.375, -4500000.375, 0.10912500508129597, 0.8902500309050083, 0.48275001533329487, 192.0, 0.0, 0.0, 0.0, 0.0, 0.0, 0.0, 0.0, 0.0, 0.0, 1.6299398268701353E9, 2021-08-25 19:03:46.870
242.0, -1758478.3125, -1865699.0625, -3061300.875, -4500000.375, -4500000.375, -2479072.125, -2655264.75, -2330963.25, -4500000.375, -4500000.375, -4500000.375, -4500000.375, -4500000.375, -4500000.375, -4500000.375, -4500000.375, 0.09600000083446503, 0.8880000710487366, 0.4700000286102295, 192.0, 1.5, 0.0, 13.5, 96.0, 7.0, 88.0, 0.0, 0.0, 0.0, 1.6299398268702767E9, 2021-08-25 19:03:46.870
244.0, -1737616.6875, -1813610.625, -3058724.8125, -4500000.375, -4500000.375, -2436957.75, -2603418.1875, -2327873.8125, -4500000.375, -4500000.375, -4500000.375, -4500000.375, -4500000.375, -4500000.375, -4500000.375, -4500000.375, 0.09600000083446503, 0.8880000710487366, 0.4700000286102295, 192.0, 0.0, 0.0, 0.0, 0.0, 0.0, 0.0, 0.0, 0.0, 0.0, 1.629939826870284E9, 2021-08-25 19:03:46.870
246.0, -1756819.125, -1854898.5, -3062120.625, -4500000.375, -4500000.375, -2475957.5625, -2653804.125, -2332262.4375, -4500000.375, -4500000.375, -4500000.375, -4500000.375, -4500000.375, -4500000.375, -4500000.375, -4500000.375, 0.09600000083446503, 0.8880000710487366, 0.4700000286102295, 192.0, 0.0, 0.0, 0.0, 0.0, 0.0, 0.0, 0.0, 0.0, 0.0, 1.6299398268702908E9, 2021-08-25 19:03:46.870
248.0, -1740035.4375, -1824905.4375, -3057278.0625, -4500000.375, -4500000.375, -2440984.6875, -2605495.875, -2326881.375, -4500000.375, -4500000.375, -4500000.375, -4500000.375, -4500000.375, -4500000.375, -4500000.375, -4500000.375, 0.09600000083446503, 0.8880000710487366, 0.4700000286102295, 192.0, 0.0, 0.0, 0.0, 0.0, 0.0, 0.0, 0.0, 0.0, 0.0, 1.6299398268702977E9, 2021-08-25 19:03:46.870
250.0, -1754261.4375, -1843733.4375, -3062043.375, -4500000.375, -4500000.375, -2471160.1875, -2649034.6875, -2332044.75, -4500000.375, -4500000.375, -4500000.375, -4500000.375, -4500000.375, -4500000.375, -4500000.375, -4500000.375, 0.09600000083446503, 0.8880000710487366, 0.4700000286102295, 192.0, 0.0, 0.0, 0.0, 0.0, 0.0, 0.0, 0.0, 0.0, 0.0, 1.6299398268703043E9, 2021-08-25 19:03:46.870
252.0, -1743076.5, -1836289.875, -3057118.3125, -4500000.375, -4500000.375, -2446095.9375, -2609774.625, -2326915.3125, -4500000.375, -4500000.375, -4500000.375, -4500000.375, -4500000.375, -4500000.375, -4500000.375, -4500000.375, 0.0860000029206276, 0.8860000371932983, 0.4660000205039978, 192.0, 1.0, 88.0, 13.5, 88.0, 7.0, 72.0, 0.0, 0.0, 0.0, 1.6299398268703113E9, 2021-08-25 19:03:46.870
254.0, -1751768.625, -1831493.4375, -3062988.5625, -4500000.375, -4500000.375, -2466098.8125, -2644572.9375, -2332661.0625, -4500000.375, -4500000.375, -4500000.375, -4500000.375, -4500000.375, -4500000.375, -4500000.375, -4500000.375, 0.0860000029206276, 0.8860000371932983, 0.4660000205039978, 192.0, 0.0, 0.0, 0.0, 0.0, 0.0, 0.0, 0.0, 0.0, 0.0, 1.629939826870326E9, 2021-08-25 19:03:46.870
0.0, -1746300.0, -1848114.5625, -3056880.0, -4500000.375, -4500000.375, -2451903.0, -2615216.25, -2326888.3125, -4500000.375, -4500000.375, -4500000.375, -4500000.375, -4500000.375, -4500000.375, -4500000.375, -4500000.375, 0.0860000029206276, 0.8860000371932983, 0.4660000205039978, 192.0, 0.0, 0.0, 0.0, 0.0, 0.0, 0.0, 0.0, 0.0, 0.0, 1.6299398268703344E9, 2021-08-25 19:03:46.870
2.0, -1748820.1875, -1819700.25, -3063419.25, -4500000.375, -4500000.375, -2460148.6875, -2638388.4375, -2332867.5, -4500000.375, -4500000.375, -4500000.375, -4500000.375, -4500000.375, -4500000.375, -4500000.375, -4500000.375, 0.0860000029206276, 0.8860000371932983, 0.4660000205039978, 192.0, 0.0, 0.0, 0.0, 0.0, 0.0, 0.0, 0.0, 0.0, 0.0, 1.6299398268703413E9, 2021-08-25 19:03:46.870
4.0, -1749537.0, -1859408.25, -3056565.75, -4500000.375, -4500000.375, -2458000.125, -2621305.875, -2326511.8125, -4500000.375, -4500000.375, -4500000.375, -4500000.375, -4500000.375, -4500000.375, -4500000.375, -4500000.375, 0.0860000029206276, 0.8860000371932983, 0.4660000205039978, 192.0, 0.0, 0.0, 0.0, 0.0, 0.0, 0.0, 0.0, 0.0, 0.0, 1.629939826870348E9, 2021-08-25 19:03:46.870
6.0, -1745656.875, -1809520.3125, -3063305.625, -4500000.375, -4500000.375, -2454076.6875, -2631846.0, -2332523.25, -4500000.375, -4500000.375, -4500000.375, -4500000.375, -4500000.375, -4500000.375, -4500000.375, -4500000.375, 0.08000000566244125, 0.8880000710487366, 0.4580000340938568, 192.0, 1.0, 64.0, 13.5, 96.0, 7.0, 40.0, 0.0, 0.0, 0.0, 1.629939826870355E9, 2021-08-25 19:03:46.870
8.0, -1752629.0625, -1869217.6875, -3056680.5, -4500000.375, -4500000.375, -2463918.75, -2627999.0625, -2326399.6875, -4500000.375, -4500000.375, -4500000.375, -4500000.375, -4500000.375, -4500000.375, -4500000.375, -4500000.375, 0.08000000566244125, 0.8880000710487366, 0.4580000340938568, 192.0, 0.0, 0.0, 0.0, 0.0, 0.0, 0.0, 0.0, 0.0, 0.0, 1.6299398268703616E9, 2021-08-25 19:03:46.870
10.0, -1742813.25, -1800859.5, -3062970.75, -4500000.375, -4500000.375, -2448037.3125, -2624747.8125, -2332131.5625, -4500000.375, -4500000.375, -4500000.375, -4500000.375, -4500000.375, -4500000.375, -4500000.375, -4500000.375, 0.08000000566244125, 0.8880000710487366, 0.4580000340938568, 192.0, 0.0, 0.0, 0.0, 0.0, 0.0, 0.0, 0.0, 0.0, 0.0, 1.6299398268703816E9, 2021-08-25 19:03:46.870
12.0, -1755679.6875, -1876630.3125, -3057265.6875, -4500000.375, -4500000.375, -2469705.9375, -2635105.3125, -2327294.4375, -4500000.375, -4500000.375, -4500000.375, -4500000.375, -4500000.375, -4500000.375, -4500000.375, -4500000.375, 0.08000000566244125, 0.8880000710487366, 0.4580000340938568, 192.0, 0.0, 0.0, 0.0, 0.0, 0.0, 0.0, 0.0, 0.0, 0.0, 1.629939826870388E9, 2021-08-25 19:03:46.870
14.0, -1740128.8125, -1794759.0, -3062363.625, -4500000.375, -4500000.375, -2442732.9375, -2618114.0625, -2331579.0, -4500000.375, -4500000.375, -4500000.375, -4500000.375, -4500000.375, -4500000.375, -4500000.375, -4500000.375, 0.08000000566244125, 0.8880000710487366, 0.4580000340938568, 192.0, 0.0, 0.0, 0.0, 0.0, 0.0, 0.0, 0.0, 0.0, 0.0, 1.6299398268703947E9, 2021-08-25 19:03:46.870
16.0, -1757837.25, -1881927.5625, -3057456.75, -4500000.375, -4500000.375, -2474455.5, -2641215.375, -2327771.4375, -4500000.375, -4500000.375, -4500000.375, -4500000.375, -4500000.375, -4500000.375, -4500000.375, -4500000.375, 0.07800000160932541, 0.9020000696182251, 0.4620000123977661, 192.0, 1.0, 56.0, 14.0, 24.0, 7.0, 56.0, 0.0, 0.0, 0.0, 1.6299398268704011E9, 2021-08-25 19:03:46.870
18.0, -1737958.875, -1791630.0, -3061217.25, -4500000.375, -4500000.375, -2438376.5625, -2611874.25, -2330628.5625, -4500000.375, -4500000.375, -4500000.375, -4500000.375, -4500000.375, -4500000.375, -4500000.375, -4500000.375, 0.07800000160932541, 0.9020000696182251, 0.4620000123977661, 192.0, 0.0, 0.0, 0.0, 0.0, 0.0, 0.0, 0.0, 0.0, 0.0, 1.6299398268704078E9, 2021-08-25 19:03:46.870
20.0, -1759571.625, -1883933.25, -3058134.75, -4500000.375, -4500000.375, -2478191.25, -2646343.875, -2328208.125, -4500000.375, -4500000.375, -4500000.375, -4500000.375, -4500000.375, -4500000.375, -4500000.375, -4500000.375, 0.07800000160932541, 0.9020000696182251, 0.4620000123977661, 192.0, 0.0, 0.0, 0.0, 0.0, 0.0, 0.0, 0.0, 0.0, 0.0, 1.6299398268704145E9, 2021-08-25 19:03:46.870
22.0, -1736768.0625, -1790575.3125, -3060940.3125, -4500000.375, -4500000.375, -2435738.4375, -2606950.6875, -2330287.3125, -4500000.375, -4500000.375, -4500000.375, -4500000.375, -4500000.375, -4500000.375, -4500000.375, -4500000.375, 0.07800000160932541, 0.9020000696182251, 0.4620000123977661, 192.0, 0.0, 0.0, 0.0, 0.0, 0.0, 0.0, 0.0, 0.0, 0.0, 1.629939826870421E9, 2021-08-25 19:03:46.870
24.0, -1760486.25, -1883035.875, -3058504.875, -4500000.375, -4500000.375, -2480659.5, -2650555.875, -2328810.9375, -4500000.375, -4500000.375, -4500000.375, -4500000.375, -4500000.375, -4500000.375, -4500000.375, -4500000.375, 0.07800000160932541, 0.9020000696182251, 0.4620000123977661, 192.0, 0.0, 0.0, 0.0, 0.0, 0.0, 0.0, 0.0, 0.0, 0.0, 1.6299398268704276E9, 2021-08-25 19:03:46.870
26.0, -1736113.5, -1793092.3125, -3060266.625, -4500000.375, -4500000.375, -2434067.8125, -2603484.1875, -2329507.3125, -4500000.375, -4500000.375, -4500000.375, -4500000.375, -4500000.375, -4500000.375, -4500000.375, -4500000.375, 0.08000000566244125, 0.9080000519752502, 0.4540000259876251, 192.0, 1.0, 64.0, 14.0, 48.0, 7.0, 24.0, 0.0, 0.0, 0.0, 1.629939826870434E9, 2021-08-25 19:03:46.870
28.0, -1760870.4375, -1879448.0625, -3059555.25, -4500000.375, -4500000.375, -2481664.125, -2653366.3125, -2329659.5625, -4500000.375, -4500000.375, -4500000.375, -4500000.375, -4500000.375, -4500000.375, -4500000.375, -4500000.375, 0.08000000566244125, 0.9080000519752502, 0.4540000259876251, 192.0, 0.0, 0.0, 0.0, 0.0, 0.0, 0.0, 0.0, 0.0, 0.0, 1.6299398268704407E9, 2021-08-25 19:03:46.870
30.0, -1736435.4375, -1798793.625, -3059388.5625, -4500000.375, -4500000.375, -2433812.4375, -2601501.5625, -2328669.375, -4500000.375, -4500000.375, -4500000.375, -4500000.375, -4500000.375, -4500000.375, -4500000.375, -4500000.375, 0.08000000566244125, 0.9080000519752502, 0.4540000259876251, 192.0, 0.0, 0.0, 0.0, 0.0, 0.0, 0.0, 0.0, 0.0, 0.0, 1.6299398268704472E9, 2021-08-25 19:03:46.870
32.0, -1760439.0, -1872671.25, -3060818.625, -4500000.375, -4500000.375, -2480949.75, -2654584.6875, -2330539.875, -4500000.375, -4500000.375, -4500000.375, -4500000.375, -4500000.375, -4500000.375, -4500000.375, -4500000.375, 0.08000000566244125, 0.9080000519752502, 0.4540000259876251, 192.0, 0.0, 0.0, 0.0, 0.0, 0.0, 0.0, 0.0, 0.0, 0.0, 1.629939826870456E9, 2021-08-25 19:03:46.870
34.0, -1737675.1875, -1806385.3125, -3058975.875, -4500000.375, -4500000.375, -2435242.125, -2601339.5625, -2328004.6875, -4500000.375, -4500000.375, -4500000.375, -4500000.375, -4500000.375, -4500000.375, -4500000.375, -4500000.375, 0.08400000631809235, 0.9070000350475311, 0.4540000259876251, 192.0, 1.0, 96.0, 14.0, 40.0, 7.0, 24.0, 0.0, 0.0, 0.0, 1.6299398268704627E9, 2021-08-25 19:03:46.870
36.0, -1759272.75, -1863918.75, -3061302.0, -4500000.375, -4500000.375, -2478679.5, -2653842.1875, -2330991.1875, -4500000.375, -4500000.375, -4500000.375, -4500000.375, -4500000.375, -4500000.375, -4500000.375, -4500000.375, 0.08400000631809235, 0.9070000350475311, 0.4540000259876251, 192.0, 0.0, 0.0, 0.0, 0.0, 0.0, 0.0, 0.0, 0.0, 0.0, 1.629939826870469E9, 2021-08-25 19:03:46.870
38.0, -1739346.1875, -1816272.5625, -3058286.0625, -4500000.375, -4500000.375, -2438131.5, -2602773.0, -2327589.5625, -4500000.375, -4500000.375, -4500000.375, -4500000.375, -4500000.375, -4500000.375, -4500000.375, -4500000.375, 0.08400000631809235, 0.9070000350475311, 0.4540000259876251, 192.0, 0.0, 0.0, 0.0, 0.0, 0.0, 0.0, 0.0, 0.0, 0.0, 1.6299398268704758E9, 2021-08-25 19:03:46.870
40.0, -1757256.9375, -1853555.25, -3061826.0625, -4500000.375, -4500000.375, -2475153.375, -2651505.9375, -2331679.3125, -4500000.375, -4500000.375, -4500000.375, -4500000.375, -4500000.375, -4500000.375, -4500000.375, -4500000.375, 0.08400000631809235, 0.9070000350475311, 0.4540000259876251, 192.0, 0.0, 0.0, 0.0, 0.0, 0.0, 0.0, 0.0, 0.0, 0.0, 1.6299398268704824E9, 2021-08-25 19:03:46.870
42.0, -1741560.5625, -1827666.9375, -3057516.375, -4500000.375, -4500000.375, -2442006.1875, -2605797.375, -2327061.1875, -4500000.375, -4500000.375, -4500000.375, -4500000.375, -4500000.375, -4500000.375, -4500000.375, -4500000.375, 0.08400000631809235, 0.9070000350475311, 0.4540000259876251, 192.0, 0.0, 0.0, 0.0, 0.0, 0.0, 0.0, 0.0, 0.0, 0.0, 1.629939826870489E9, 2021-08-25 19:03:46.870
44.0, -1754639.0625, -1841661.1875, -3062619.0, -4500000.375, -4500000.375, -2470269.1875, -2647823.25, -2332492.125, -4500000.375, -4500000.375, -4500000.375, -4500000.375, -4500000.375, -4500000.375, -4500000.375, -4500000.375, 0.08700000494718552, 0.9095000475645065, 0.4540000259876251, 192.0, 1.0, 104.0, 14.0, 64.0, 7.0, 24.0, 0.0, 0.0, 0.0, 1.6299398268704956E9, 2021-08-25 19:03:46.870
46.0, -1744256.8125, -1839315.375, -3056971.3125, -4500000.375, -4500000.375, -2447111.4375, -2610566.8125, -2326629.375, -4500000.375, -4500000.375, -4500000.375, -4500000.375, -4500000.375, -4500000.375, -4500000.375, -4500000.375, 0.08700000494718552, 0.9095000475645065, 0.4540000259876251, 192.0, 0.0, 0.0, 0.0, 0.0, 0.0, 0.0, 0.0, 0.0, 0.0, 1.6299398268705027E9, 2021-08-25 19:03:46.870
48.0, -1751462.25, -1829837.4375, -3062708.0625, -4500000.375, -4500000.375, -2464712.625, -2642761.5, -2331927.75, -4500000.375, -4500000.375, -4500000.375, -4500000.375, -4500000.375, -4500000.375, -4500000.375, -4500000.375, 0.08700000494718552, 0.9095000475645065, 0.4540000259876251, 192.0, 0.0, 0.0, 0.0, 0.0, 0.0, 0.0, 0.0, 0.0, 0.0, 1.6299398268705096E9, 2021-08-25 19:03:46.870
50.0, -1747265.625, -1850893.875, -3056889.75, -4500000.375, -4500000.375, -2452979.625, -2616165.1875, -2326239.75, -4500000.375, -4500000.375, -4500000.375, -4500000.375, -4500000.375, -4500000.375, -4500000.375, -4500000.375, 0.08700000494718552, 0.9095000475645065, 0.4540000259876251, 192.0, 0.0, 0.0, 0.0, 0.0, 0.0, 0.0, 0.0, 0.0, 0.0, 1.6299398268705163E9, 2021-08-25 19:03:46.870
52.0, -1748701.6875, -1818064.125, -3063435.375, -4500000.375, -4500000.375, -2459226.0, -2637183.0, -2332327.3125, -4500000.375, -4500000.375, -4500000.375, -4500000.375, -4500000.375, -4500000.375, -4500000.375, -4500000.375, 0.08700000494718552, 0.9095000475645065, 0.4540000259876251, 192.0, 0.0, 0.0, 0.0, 0.0, 0.0, 0.0, 0.0, 0.0, 0.0, 1.6299398268705227E9, 2021-08-25 19:03:46.870
54.0, -1750595.4375, -1862013.1875, -3056586.1875, -4500000.375, -4500000.375, -2459495.8125, -2622789.75, -2326236.0, -4500000.375, -4500000.375, -4500000.375, -4500000.375, -4500000.375, -4500000.375, -4500000.375, -4500000.375, 0.08750000596046448, 0.9107500538229942, 0.4520000219345093, 192.0, 1.0, 96.0, 14.0, 64.0, 7.0, 8.0, 0.0, 0.0, 0.0, 1.6299398268705294E9, 2021-08-25 19:03:46.870
56.0, -1745485.125, -1808137.3125, -3063034.6875, -4500000.375, -4500000.375, -2453118.0, -2630273.625, -2332099.875, -4500000.375, -4500000.375, -4500000.375, -4500000.375, -4500000.375, -4500000.375, -4500000.375, -4500000.375, 0.08750000596046448, 0.9107500538229942, 0.4520000219345093, 192.0, 0.0, 0.0, 0.0, 0.0, 0.0, 0.0, 0.0, 0.0, 0.0, 1.629939826870536E9, 2021-08-25 19:03:46.870
58.0, -1753681.5, -1871472.375, -3056769.0, -4500000.375, -4500000.375, -2465430.9375, -2629217.8125, -2326804.125, -4500000.375, -4500000.375, -4500000.375, -4500000.375, -4500000.375, -4500000.375, -4500000.375, -4500000.375, 0.08750000596046448, 0.9107500538229942, 0.4520000219345093, 192.0, 0.0, 0.0, 0.0, 0.0, 0.0, 0.0, 0.0, 0.0, 0.0, 1.6299398268705425E9, 2021-08-25 19:03:46.870
60.0, -1742895.75, -1800110.0625, -3062518.6875, -4500000.375, -4500000.375, -2447408.625, -2623338.5625, -2332097.8125, -4500000.375, -4500000.375, -4500000.375, -4500000.375, -4500000.375, -4500000.375, -4500000.375, -4500000.375, 0.08750000596046448, 0.9107500538229942, 0.4520000219345093, 192.0, 0.0, 0.0, 0.0, 0.0, 0.0, 0.0, 0.0, 0.0, 0.0, 1.6299398268705492E9, 2021-08-25 19:03:46.870
62.0, -1756586.25, -1878632.25, -3056951.4375, -4500000.375, -4500000.375, -2470822.125, -2636068.875, -2327409.75, -4500000.375, -4500000.375, -4500000.375, -4500000.375, -4500000.375, -4500000.375, -4500000.375, -4500000.375, 0.08750000596046448, 0.9107500538229942, 0.4520000219345093, 192.0, 0.0, 0.0, 0.0, 0.0, 0.0, 0.0, 0.0, 0.0, 0.0, 1.6299398268705559E9, 2021-08-25 19:03:46.870
64.0, -1740464.0625, -1793914.125, -3062058.375, -4500000.375, -4500000.375, -2442136.5, -2617063.125, -2331750.75, -4500000.375, -4500000.375, -4500000.375, -4500000.375, -4500000.375, -4500000.375, -4500000.375, -4500000.375, 0.0807500034570694, 0.9123750440776348, 0.45000001788139343, 192.0, 1.0, 40.0, 14.0, 72.0, 7.0, 0.0, 0.0, 0.0, 0.0, 1.6299398268705623E9, 2021-08-25 19:03:46.870
66.0, -1758888.1875, -1882956.0, -3057044.8125, -4500000.375, -4500000.375, -2475501.5625, -2642060.25, -2327665.6875, -4500000.375, -4500000.375, -4500000.375, -4500000.375, -4500000.375, -4500000.375, -4500000.375, -4500000.375, 0.0807500034570694, 0.9123750440776348, 0.45000001788139343, 192.0, 0.0, 0.0, 0.0, 0.0, 0.0, 0.0, 0.0, 0.0, 0.0, 1.629939826870571E9, 2021-08-25 19:03:46.870
68.0, -1738157.4375, -1791260.25, -3060648.5625, -4500000.375, -4500000.375, -2437615.3125, -2610756.1875, -2330160.75, -4500000.375, -4500000.375, -4500000.375, -4500000.375, -4500000.375, -4500000.375, -4500000.375, -4500000.375, 0.0807500034570694, 0.9123750440776348, 0.45000001788139343, 192.0, 0.0, 0.0, 0.0, 0.0, 0.0, 0.0, 0.0, 0.0, 0.0, 1.6299398268705773E9, 2021-08-25 19:03:46.870
70.0, -1760211.5625, -1884367.3125, -3057915.9375, -4500000.375, -4500000.375, -2478540.0, -2647188.75, -2328454.875, -4500000.375, -4500000.375, -4500000.375, -4500000.375, -4500000.375, -4500000.375, -4500000.375, -4500000.375, 0.0807500034570694, 0.9123750440776348, 0.45000001788139343, 192.0, 0.0, 0.0, 0.0, 0.0, 0.0, 0.0, 0.0, 0.0, 0.0, 1.629939826870584E9, 2021-08-25 19:03:46.870
72.0, -1736997.0, -1790602.125, -3060809.0625, -4500000.375, -4500000.375, -2435219.0625, -2606539.875, -2330557.6875, -4500000.375, -4500000.375, -4500000.375, -4500000.375, -4500000.375, -4500000.375, -4500000.375, -4500000.375, 0.0807500034570694, 0.9123750440776348, 0.45000001788139343, 192.0, 0.0, 0.0, 0.0, 0.0, 0.0, 0.0, 0.0, 0.0, 0.0, 1.6299398268705907E9, 2021-08-25 19:03:46.870
74.0, -1761052.3125, -1882934.4375, -3058456.6875, -4500000.375, -4500000.375, -2480978.0625, -2651024.8125, -2329073.25, -4500000.375, -4500000.375, -4500000.375, -4500000.375, -4500000.375, -4500000.375, -4500000.375, -4500000.375, 0.0793750025331974, 0.9121875520795584, 0.4440000206232071, 192.0, 1.0, 56.0, 14.0, 64.0, 6.5, 88.0, 0.0, 0.0, 0.0, 1.6299398268705971E9, 2021-08-25 19:03:46.870
76.0, -1736507.8125, -1794144.1875, -3059693.25, -4500000.375, -4500000.375, -2433727.6875, -2603113.5, -2329343.625, -4500000.375, -4500000.375, -4500000.375, -4500000.375, -4500000.375, -4500000.375, -4500000.375, -4500000.375, 0.0793750025331974, 0.9121875520795584, 0.4440000206232071, 192.0, 0.0, 0.0, 0.0, 0.0, 0.0, 0.0, 0.0, 0.0, 0.0, 1.6299398268706038E9, 2021-08-25 19:03:46.870
78.0, -1761385.3125, -1878433.6875, -3059712.5625, -4500000.375, -4500000.375, -2481580.5, -2653631.4375, -2330279.25, -4500000.375, -4500000.375, -4500000.375, -4500000.375, -4500000.375, -4500000.375, -4500000.375, -4500000.375, 0.0793750025331974, 0.9121875520795584, 0.4440000206232071, 192.0, 0.0, 0.0, 0.0, 0.0, 0.0, 0.0, 0.0, 0.0, 0.0, 1.6299398268706105E9, 2021-08-25 19:03:46.870
80.0, -1737176.8125, -1799935.6875, -3059072.0625, -4500000.375, -4500000.375, -2433977.25, -2601292.3125, -2329074.375, -4500000.375, -4500000.375, -4500000.375, -4500000.375, -4500000.375, -4500000.375, -4500000.375, -4500000.375, 0.0793750025331974, 0.9121875520795584, 0.4440000206232071, 192.0, 0.0, 0.0, 0.0, 0.0, 0.0, 0.0, 0.0, 0.0, 0.0, 1.629939826870617E9, 2021-08-25 19:03:46.870
82.0, -1761051.75, -1871258.25, -3060294.0, -4500000.375, -4500000.375, -2480537.625, -2653995.0, -2331190.125, -4500000.375, -4500000.375, -4500000.375, -4500000.375, -4500000.375, -4500000.375, -4500000.375, -4500000.375, 0.0793750025331974, 0.9121875520795584, 0.4440000206232071, 192.0, 0.0, 0.0, 0.0, 0.0, 0.0, 0.0, 0.0, 0.0, 0.0, 1.6299398268706236E9, 2021-08-25 19:03:46.870
84.0, -1738731.375, -1808372.25, -3058046.25, -4500000.375, -4500000.375, -2435811.375, -2600960.8125, -2328456.375, -4500000.375, -4500000.375, -4500000.375, -4500000.375, -4500000.375, -4500000.375, -4500000.375, -4500000.375, 0.07400000095367432, 0.9100000262260437, 0.44600000977516174, 192.0, 1.0, 40.0, 14.0, 56.0, 6.5, 120.0, 0.0, 0.0, 0.0, 1.6299398268706303E9, 2021-08-25 19:03:46.870
86.0, -1759455.75, -1862247.75, -3060488.625, -4500000.375, -4500000.375, -2478027.75, -2652528.375, -2331547.3125, -4500000.375, -4500000.375, -4500000.375, -4500000.375, -4500000.375, -4500000.375, -4500000.375, -4500000.375, 0.07400000095367432, 0.9100000262260437, 0.44600000977516174, 192.0, 0.0, 0.0, 0.0, 0.0, 0.0, 0.0, 0.0, 0.0, 0.0, 1.6299398268706377E9, 2021-08-25 19:03:46.870
88.0, -1740354.75, -1818543.1875, -3057212.625, -4500000.375, -4500000.375, -2438977.875, -2602935.5625, -2327829.9375, -4500000.375, -4500000.375, -4500000.375, -4500000.375, -4500000.375, -4500000.375, -4500000.375, -4500000.375, 0.07400000095367432, 0.9100000262260437, 0.44600000977516174, 192.0, 0.0, 0.0, 0.0, 0.0, 0.0, 0.0, 0.0, 0.0, 0.0, 1.629939826870644E9, 2021-08-25 19:03:46.870
90.0, -1757207.625, -1851377.25, -3060956.4375, -4500000.375, -4500000.375, -2474210.8125, -2649889.6875, -2331783.375, -4500000.375, -4500000.375, -4500000.375, -4500000.375, -4500000.375, -4500000.375, -4500000.375, -4500000.375, 0.07400000095367432, 0.9100000262260437, 0.44600000977516174, 192.0, 0.0, 0.0, 0.0, 0.0, 0.0, 0.0, 0.0, 0.0, 0.0, 1.6299398268706512E9, 2021-08-25 19:03:46.870
92.0, -1742628.75, -1830053.625, -3056647.875, -4500000.375, -4500000.375, -2443323.1875, -2606175.5625, -2327091.75, -4500000.375, -4500000.375, -4500000.375, -4500000.375, -4500000.375, -4500000.375, -4500000.375, -4500000.375, 0.07400000095367432, 0.9100000262260437, 0.44600000977516174, 192.0, 0.0, 0.0, 0.0, 0.0, 0.0, 0.0, 0.0, 0.0, 0.0, 1.629939826870658E9, 2021-08-25 19:03:46.870
94.0, -1754363.25, -1839835.6875, -3061464.0, -4500000.375, -4500000.375, -2469378.0, -2645610.0, -2331935.25, -4500000.375, -4500000.375, -4500000.375, -4500000.375, -4500000.375, -4500000.375, -4500000.375, -4500000.375, 0.07800000160932541, 0.9120000600814819, 0.4440000355243683, 192.0, 1.0, 56.0, 14.0, 64.0, 6.5, 112.0, 0.0, 0.0, 0.0, 1.6299398268706644E9, 2021-08-25 19:03:46.870
96.0, -1745381.0625, -1842104.25, -3056276.0625, -4500000.375, -4500000.375, -2448398.4375, -2610550.3125, -2326656.5625, -4500000.375, -4500000.375, -4500000.375, -4500000.375, -4500000.375, -4500000.375, -4500000.375, -4500000.375, 0.07800000160932541, 0.9120000600814819, 0.4440000355243683, 192.0, 0.0, 0.0, 0.0, 0.0, 0.0, 0.0, 0.0, 0.0, 0.0, 1.6299398268706713E9, 2021-08-25 19:03:46.870
98.0, -1751671.5, -1827403.125, -3062329.3125, -4500000.375, -4500000.375, -2463827.4375, -2640845.25, -2332859.625, -4500000.375, -4500000.375, -4500000.375, -4500000.375, -4500000.375, -4500000.375, -4500000.375, -4500000.375, 0.07800000160932541, 0.9120000600814819, 0.4440000355243683, 192.0, 0.0, 0.0, 0.0, 0.0, 0.0, 0.0, 0.0, 0.0, 0.0, 1.6299398268706777E9, 2021-08-25 19:03:46.870
100.0, -1748813.8125, -1853727.375, -3055978.3125, -4500000.375, -4500000.375, -2454554.0625, -2616680.8125, -2326940.4375, -4500000.375, -4500000.375, -4500000.375, -4500000.375, -4500000.375, -4500000.375, -4500000.375, -4500000.375, 0.07800000160932541, 0.9120000600814819, 0.4440000355243683, 192.0, 0.0, 0.0, 0.0, 0.0, 0.0, 0.0, 0.0, 0.0, 0.0, 1.629939826870686E9, 2021-08-25 19:03:46.870
102.0, -1748666.25, -1816411.5, -3062161.3125, -4500000.375, -4500000.375, -2457890.25, -2634324.375, -2332710.375, -4500000.375, -4500000.375, -4500000.375, -4500000.375, -4500000.375, -4500000.375, -4500000.375, -4500000.375, 0.07800000160932541, 0.9120000600814819, 0.4440000355243683, 192.0, 0.0, 0.0, 0.0, 0.0, 0.0, 0.0, 0.0, 0.0, 0.0, 1.6299398268706925E9, 2021-08-25 19:03:46.870
104.0, -1751734.6875, -1864448.25, -3055669.3125, -4500000.375, -4500000.375, -2460573.0, -2622994.125, -2326778.4375, -4500000.375, -4500000.375, -4500000.375, -4500000.375, -4500000.375, -4500000.375, -4500000.375, -4500000.375, 0.07800000160932541, 0.9100000262260437, 0.4440000355243683, 192.0, 1.0, 56.0, 14.0, 56.0, 6.5, 112.0, 0.0, 0.0, 0.0, 1.6299398273505042E9, 2021-08-25 19:03:47.350
106.0, -1745247.5625, -1806107.4375, -3061800.9375, -4500000.375, -4500000.375, -2451686.8125, -2627830.6875, -2332314.5625, -4500000.375, -4500000.375, -4500000.375, -4500000.375, -4500000.375, -4500000.375, -4500000.375, -4500000.375, 0.07800000160932541, 0.9100000262260437, 0.4440000355243683, 192.0, 0.0, 0.0, 0.0, 0.0, 0.0, 0.0, 0.0, 0.0, 0.0, 1.6299398273506937E9, 2021-08-25 19:03:47.350
108.0, -1754492.625, -1873355.8125, -3055383.375, -4500000.375, -4500000.375, -2466239.4375, -2629746.375, -2326640.0625, -4500000.375, -4500000.375, -4500000.375, -4500000.375, -4500000.375, -4500000.375, -4500000.375, -4500000.375, 0.07800000160932541, 0.9100000262260437, 0.4440000355243683, 192.0, 0.0, 0.0, 0.0, 0.0, 0.0, 0.0, 0.0, 0.0, 0.0, 1.6299398273507028E9, 2021-08-25 19:03:47.350
110.0, -1742420.0625, -1798625.0625, -3061273.5, -4500000.375, -4500000.375, -2445893.8125, -2620864.5, -2331742.125, -4500000.375, -4500000.375, -4500000.375, -4500000.375, -4500000.375, -4500000.375, -4500000.375, -4500000.375, 0.07800000160932541, 0.9100000262260437, 0.4440000355243683, 192.0, 0.0, 0.0, 0.0, 0.0, 0.0, 0.0, 0.0, 0.0, 0.0, 1.62993982735071E9, 2021-08-25 19:03:47.350
112.0, -1757285.8125, -1879981.3125, -3056278.125, -4500000.375, -4500000.375, -2471786.25, -2636612.25, -2327346.5625, -4500000.375, -4500000.375, -4500000.375, -4500000.375, -4500000.375, -4500000.375, -4500000.375, -4500000.375, 0.07800000160932541, 0.9100000262260437, 0.4440000355243683, 192.0, 0.0, 0.0, 0.0, 0.0, 0.0, 0.0, 0.0, 0.0, 0.0, 1.6299398273507168E9, 2021-08-25 19:03:47.350
114.0, -1740276.375, -1792955.4375, -3061495.125, -4500000.375, -4500000.375, -2441437.5, -2614851.9375, -2331743.25, -4500000.375, -4500000.375, -4500000.375, -4500000.375, -4500000.375, -4500000.375, -4500000.375, -4500000.375, 0.0820000022649765, 0.9100000262260437, 0.4440000355243683, 192.0, 1.0, 72.0, 14.0, 56.0, 6.5, 112.0, 0.0, 0.0, 0.0, 1.6299398273507247E9, 2021-08-25 19:03:47.350
116.0, -1759588.875, -1883898.9375, -3056947.6875, -4500000.375, -4500000.375, -2476560.5625, -2642461.5, -2328071.8125, -4500000.375, -4500000.375, -4500000.375, -4500000.375, -4500000.375, -4500000.375, -4500000.375, -4500000.375, 0.0820000022649765, 0.9100000262260437, 0.4440000355243683, 192.0, 0.0, 0.0, 0.0, 0.0, 0.0, 0.0, 0.0, 0.0, 0.0, 1.6299398273507328E9, 2021-08-25 19:03:47.350
118.0, -1738348.875, -1790864.4375, -3060561.1875, -4500000.375, -4500000.375, -2437570.875, -2609342.25, -2330991.5625, -4500000.375, -4500000.375, -4500000.375, -4500000.375, -4500000.375, -4500000.375, -4500000.375, -4500000.375, 0.0820000022649765, 0.9100000262260437, 0.4440000355243683, 192.0, 0.0, 0.0, 0.0, 0.0, 0.0, 0.0, 0.0, 0.0, 0.0, 1.6299398273507397E9, 2021-08-25 19:03:47.350
120.0, -1760860.6875, -1884663.9375, -3057713.25, -4500000.375, -4500000.375, -2479587.1875, -2647431.1875, -2328789.5625, -4500000.375, -4500000.375, -4500000.375, -4500000.375, -4500000.375, -4500000.375, -4500000.375, -4500000.375, 0.0820000022649765, 0.9100000262260437, 0.4440000355243683, 192.0, 0.0, 0.0, 0.0, 0.0, 0.0, 0.0, 0.0, 0.0, 0.0, 1.6299398273507466E9, 2021-08-25 19:03:47.350
122.0, -1737234.1875, -1791043.125, -3060236.625, -4500000.375, -4500000.375, -2435180.4375, -2605156.875, -2330649.9375, -4500000.375, -4500000.375, -4500000.375, -4500000.375, -4500000.375, -4500000.375, -4500000.375, -4500000.375, 0.08300000429153442, 0.9130000472068787, 0.4440000355243683, 192.0, 1.0, 80.0, 14.0, 80.0, 6.5, 112.0, 0.0, 0.0, 0.0, 1.629939827350754E9, 2021-08-25 19:03:47.350
124.0, -1761527.4375, -1882456.5, -3058206.75, -4500000.375, -4500000.375, -2481509.625, -2650777.5, -2329322.8125, -4500000.375, -4500000.375, -4500000.375, -4500000.375, -4500000.375, -4500000.375, -4500000.375, -4500000.375, 0.08300000429153442, 0.9130000472068787, 0.4440000355243683, 192.0, 0.0, 0.0, 0.0, 0.0, 0.0, 0.0, 0.0, 0.0, 0.0, 1.6299398273507636E9, 2021-08-25 19:03:47.350
126.0, -1737028.125, -1794819.5625, -3059364.9375, -4500000.375, -4500000.375, -2434317.375, -2601939.375, -2329773.9375, -4500000.375, -4500000.375, -4500000.375, -4500000.375, -4500000.375, -4500000.375, -4500000.375, -4500000.375, 0.08300000429153442, 0.9130000472068787, 0.4440000355243683, 192.0, 0.0, 0.0, 0.0, 0.0, 0.0, 0.0, 0.0, 0.0, 0.0, 1.6299398273507707E9, 2021-08-25 19:03:47.350
128.0, -1761511.5, -1877033.625, -3059126.625, -4500000.375, -4500000.375, -2481948.5625, -2652989.8125, -2330376.9375, -4500000.375, -4500000.375, -4500000.375, -4500000.375, -4500000.375, -4500000.375, -4500000.375, -4500000.375, 0.08300000429153442, 0.9130000472068787, 0.4440000355243683, 192.0, 0.0, 0.0, 0.0, 0.0, 0.0, 0.0, 0.0, 0.0, 0.0, 1.6299398273507829E9, 2021-08-25 19:03:47.350
130.0, -1737675.1875, -1801201.125, -3058308.0, -4500000.375, -4500000.375, -2435075.25, -2600691.5625, -2328887.625, -4500000.375, -4500000.375, -4500000.375, -4500000.375, -4500000.375, -4500000.375, -4500000.375, -4500000.375, 0.08300000429153442, 0.9130000472068787, 0.4440000355243683, 192.0, 0.0, 0.0, 0.0, 0.0, 0.0, 0.0, 0.0, 0.0, 0.0, 1.6299398273507905E9, 2021-08-25 19:03:47.350
132.0, -1760810.25, -1869117.375, -3060183.5625, -4500000.375, -4500000.375, -2480708.8125, -2653269.1875, -2331381.5625, -4500000.375, -4500000.375, -4500000.375, -4500000.375, -4500000.375, -4500000.375, -4500000.375, -4500000.375, 0.08250000327825546, 0.9115000367164612, 0.4400000274181366, 192.0, 1.0, 72.0, 14.0, 56.0, 6.5, 80.0, 0.0, 0.0, 0.0, 1.6299398273508027E9, 2021-08-25 19:03:47.350
134.0, -1739053.875, -1809893.0625, -3057808.6875, -4500000.375, -4500000.375, -2437118.0625, -2601343.875, -2328469.875, -4500000.375, -4500000.375, -4500000.375, -4500000.375, -4500000.375, -4500000.375, -4500000.375, -4500000.375, 0.08250000327825546, 0.9115000367164612, 0.4400000274181366, 192.0, 0.0, 0.0, 0.0, 0.0, 0.0, 0.0, 0.0, 0.0, 0.0, 1.629939827350839E9, 2021-08-25 19:03:47.350
136.0, -1759059.375, -1859247.9375, -3060764.4375, -4500000.375, -4500000.375, -2477899.5, -2652290.25, -2331697.125, -4500000.375, -4500000.375, -4500000.375, -4500000.375, -4500000.375, -4500000.375, -4500000.375, -4500000.375, 0.08250000327825546, 0.9115000367164612, 0.4400000274181366, 192.0, 0.0, 0.0, 0.0, 0.0, 0.0, 0.0, 0.0, 0.0, 0.0, 1.6299398273508499E9, 2021-08-25 19:03:47.350
138.0, -1741025.8125, -1819949.25, -3057261.5625, -4500000.375, -4500000.375, -2440530.375, -2603766.375, -2327836.3125, -4500000.375, -4500000.375, -4500000.375, -4500000.375, -4500000.375, -4500000.375, -4500000.375, -4500000.375, 0.08250000327825546, 0.9115000367164612, 0.4400000274181366, 192.0, 0.0, 0.0, 0.0, 0.0, 0.0, 0.0, 0.0, 0.0, 0.0, 1.6299398273508618E9, 2021-08-25 19:03:47.350
140.0, -1757144.8125, -1848046.5, -3061189.875, -4500000.375, -4500000.375, -2473932.5625, -2649546.375, -2331904.6875, -4500000.375, -4500000.375, -4500000.375, -4500000.375, -4500000.375, -4500000.375, -4500000.375, -4500000.375, 0.08250000327825546, 0.9115000367164612, 0.4400000274181366, 192.0, 0.0, 0.0, 0.0, 0.0, 0.0, 0.0, 0.0, 0.0, 0.0, 1.6299398273508713E9, 2021-08-25 19:03:47.350
142.0, -1743823.3125, -1831975.6875, -3056468.0625, -4500000.375, -4500000.375, -2445089.0625, -2607581.625, -2327207.625, -4500000.375, -4500000.375, -4500000.375, -4500000.375, -4500000.375, -4500000.375, -4500000.375, -4500000.375, 0.08225000277161598, 0.9107500314712524, 0.43400003015995026, 192.0, 1.0, 72.0, 14.0, 56.0, 6.5, 48.0, 0.0, 0.0, 0.0, 1.6299398273508809E9, 2021-08-25 19:03:47.350
144.0, -1754442.1875, -1836244.125, -3061632.9375, -4500000.375, -4500000.375, -2468822.8125, -2645252.625, -2332479.75, -4500000.375, -4500000.375, -4500000.375, -4500000.375, -4500000.375, -4500000.375, -4500000.375, -4500000.375, 0.08225000277161598, 0.9107500314712524, 0.43400003015995026, 192.0, 0.0, 0.0, 0.0, 0.0, 0.0, 0.0, 0.0, 0.0, 0.0, 1.62993982735089E9, 2021-08-25 19:03:47.350
146.0, -1746671.25, -1844021.0625, -3055777.6875, -4500000.375, -4500000.375, -2450485.125, -2612238.375, -2326675.875, -4500000.375, -4500000.375, -4500000.375, -4500000.375, -4500000.375, -4500000.375, -4500000.375, -4500000.375, 0.08225000277161598, 0.9107500314712524, 0.43400003015995026, 192.0, 0.0, 0.0, 0.0, 0.0, 0.0, 0.0, 0.0, 0.0, 0.0, 1.6299398273508985E9, 2021-08-25 19:03:47.350
148.0, -1751482.6875, -1824333.0, -3061854.5625, -4500000.375, -4500000.375, -2463161.8125, -2639414.0625, -2332545.1875, -4500000.375, -4500000.375, -4500000.375, -4500000.375, -4500000.375, -4500000.375, -4500000.375, -4500000.375, 0.08225000277161598, 0.9107500314712524, 0.43400003015995026, 192.0, 0.0, 0.0, 0.0, 0.0, 0.0, 0.0, 0.0, 0.0, 0.0, 1.6299398273509097E9, 2021-08-25 19:03:47.350
150.0, -1749558.9375, -1855995.375, -3055074.9375, -4500000.375, -4500000.375, -2456253.5625, -2617731.0, -2326258.6875, -4500000.375, -4500000.375, -4500000.375, -4500000.375, -4500000.375, -4500000.375, -4500000.375, -4500000.375, 0.08225000277161598, 0.9107500314712524, 0.43400003015995026, 192.0, 0.0, 0.0, 0.0, 0.0, 0.0, 0.0, 0.0, 0.0, 0.0, 1.6299398273509195E9, 2021-08-25 19:03:47.350
152.0, -1747845.0, -1813597.6875, -3061886.625, -4500000.375, -4500000.375, -2456823.75, -2633084.625, -2332473.75, -4500000.375, -4500000.375, -4500000.375, -4500000.375, -4500000.375, -4500000.375, -4500000.375, -4500000.375, 0.08112500421702862, 0.9143750369548798, 0.4350000247359276, 192.0, 1.0, 64.0, 14.0, 88.0, 6.5, 80.0, 0.0, 0.0, 0.0, 1.629939827350928E9, 2021-08-25 19:03:47.350
154.0, -1752372.5625, -1866236.0625, -3055362.5625, -4500000.375, -4500000.375, -2462256.75, -2624574.9375, -2326463.625, -4500000.375, -4500000.375, -4500000.375, -4500000.375, -4500000.375, -4500000.375, -4500000.375, -4500000.375, 0.08112500421702862, 0.9143750369548798, 0.4350000247359276, 192.0, 0.0, 0.0, 0.0, 0.0, 0.0, 0.0, 0.0, 0.0, 0.0, 1.6299398273509383E9, 2021-08-25 19:03:47.350
156.0, -1744825.875, -1803978.375, -3061842.75, -4500000.375, -4500000.375, -2450843.4375, -2626391.4375, -2332186.3125, -4500000.375, -4500000.375, -4500000.375, -4500000.375, -4500000.375, -4500000.375, -4500000.375, -4500000.375, 0.08112500421702862, 0.9143750369548798, 0.4350000247359276, 192.0, 0.0, 0.0, 0.0, 0.0, 0.0, 0.0, 0.0, 0.0, 0.0, 1.629939827350973E9, 2021-08-25 19:03:47.350
158.0, -1755625.5, -1874645.4375, -3055714.3125, -4500000.375, -4500000.375, -2468184.0, -2631505.875, -2326998.375, -4500000.375, -4500000.375, -4500000.375, -4500000.375, -4500000.375, -4500000.375, -4500000.375, -4500000.375, 0.08112500421702862, 0.9143750369548798, 0.4350000247359276, 192.0, 0.0, 0.0, 0.0, 0.0, 0.0, 0.0, 0.0, 0.0, 0.0, 1.6299398273509836E9, 2021-08-25 19:03:47.350
160.0, -1742322.375, -1796810.8125, -3061257.9375, -4500000.375, -4500000.375, -2445232.875, -2619494.4375, -2331752.25, -4500000.375, -4500000.375, -4500000.375, -4500000.375, -4500000.375, -4500000.375, -4500000.375, -4500000.375, 0.08112500421702862, 0.9143750369548798, 0.4350000247359276, 192.0, 0.0, 0.0, 0.0, 0.0, 0.0, 0.0, 0.0, 0.0, 0.0, 1.6299398273509967E9, 2021-08-25 19:03:47.350
162.0, -1758093.75, -1880788.6875, -3055868.4375, -4500000.375, -4500000.375, -2472972.75, -2637146.0625, -2327027.8125, -4500000.375, -4500000.375, -4500000.375, -4500000.375, -4500000.375, -4500000.375, -4500000.375, -4500000.375, 0.08156250324100256, 0.9201875478029251, 0.4345000199973583, 192.0, 1.0, 72.0, 14.0, 120.0, 6.5, 72.0, 0.0, 0.0, 0.0, 1.62993982735103E9, 2021-08-25 19:03:47.351
164.0, -1739922.9375, -1791828.375, -3060921.5625, -4500000.375, -4500000.375, -2440535.8125, -2613138.0, -2331013.6875, -4500000.375, -4500000.375, -4500000.375, -4500000.375, -4500000.375, -4500000.375, -4500000.375, -4500000.375, 0.08156250324100256, 0.9201875478029251, 0.4345000199973583, 192.0, 0.0, 0.0, 0.0, 0.0, 0.0, 0.0, 0.0, 0.0, 0.0, 1.6299398273510404E9, 2021-08-25 19:03:47.351
166.0, -1760323.6875, -1883718.1875, -3056743.3125, -4500000.375, -4500000.375, -2477608.125, -2643675.0, -2327983.875, -4500000.375, -4500000.375, -4500000.375, -4500000.375, -4500000.375, -4500000.375, -4500000.375, -4500000.375, 0.08156250324100256, 0.9201875478029251, 0.4345000199973583, 192.0, 0.0, 0.0, 0.0, 0.0, 0.0, 0.0, 0.0, 0.0, 0.0, 1.6299398273510573E9, 2021-08-25 19:03:47.351
168.0, -1738684.6875, -1790381.0625, -3059953.875, -4500000.375, -4500000.375, -2437283.8125, -2608134.1875, -2330168.25, -4500000.375, -4500000.375, -4500000.375, -4500000.375, -4500000.375, -4500000.375, -4500000.375, -4500000.375, 0.08156250324100256, 0.9201875478029251, 0.4345000199973583, 192.0, 0.0, 0.0, 0.0, 0.0, 0.0, 0.0, 0.0, 0.0, 0.0, 1.6299398273510811E9, 2021-08-25 19:03:47.351
170.0, -1761916.875, -1884095.8125, -3057173.4375, -4500000.375, -4500000.375, -2480474.4375, -2648273.4375, -2328414.0, -4500000.375, -4500000.375, -4500000.375, -4500000.375, -4500000.375, -4500000.375, -4500000.375, -4500000.375, 0.08156250324100256, 0.9201875478029251, 0.4345000199973583, 192.0, 0.0, 0.0, 0.0, 0.0, 0.0, 0.0, 0.0, 0.0, 0.0, 1.6299398273510907E9, 2021-08-25 19:03:47.351
172.0, -1737996.5625, -1791355.875, -3059336.4375, -4500000.375, -4500000.375, -2435030.8125, -2604092.625, -2329598.4375, -4500000.375, -4500000.375, -4500000.375, -4500000.375, -4500000.375, -4500000.375, -4500000.375, -4500000.375, 0.07600000500679016, 0.9280000329017639, 0.4400000274181366, 192.0, 1.0, 48.0, 14.5, 0.0, 6.5, 96.0, 0.0, 0.0, 0.0, 1.6299398273511057E9, 2021-08-25 19:03:47.351
174.0, -1762766.625, -1880559.1875, -3058665.375, -4500000.375, -4500000.375, -2482100.8125, -2651894.4375, -2329678.875, -4500000.375, -4500000.375, -4500000.375, -4500000.375, -4500000.375, -4500000.375, -4500000.375, -4500000.375, 0.07600000500679016, 0.9280000329017639, 0.4400000274181366, 192.0, 0.0, 0.0, 0.0, 0.0, 0.0, 0.0, 0.0, 0.0, 0.0, 1.6299398273511205E9, 2021-08-25 19:03:47.351
176.0, -1738141.875, -1795754.0625, -3058616.625, -4500000.375, -4500000.375, -2434471.875, -2601671.0625, -2329051.875, -4500000.375, -4500000.375, -4500000.375, -4500000.375, -4500000.375, -4500000.375, -4500000.375, -4500000.375, 0.07600000500679016, 0.9280000329017639, 0.4400000274181366, 192.0, 0.0, 0.0, 0.0, 0.0, 0.0, 0.0, 0.0, 0.0, 0.0, 1.629939827351132E9, 2021-08-25 19:03:47.351
178.0, -1762193.8125, -1875284.25, -3059059.125, -4500000.375, -4500000.375, -2481874.5, -2653537.5, -2329986.375, -4500000.375, -4500000.375, -4500000.375, -4500000.375, -4500000.375, -4500000.375, -4500000.375, -4500000.375, 0.07600000500679016, 0.9280000329017639, 0.4400000274181366, 192.0, 0.0, 0.0, 0.0, 0.0, 0.0, 0.0, 0.0, 0.0, 0.0, 1.6299398273511405E9, 2021-08-25 19:03:47.351
180.0, -1738614.9375, -1803067.5, -3057717.0, -4500000.375, -4500000.375, -2435408.4375, -2600840.625, -2327954.8125, -4500000.375, -4500000.375, -4500000.375, -4500000.375, -4500000.375, -4500000.375, -4500000.375, -4500000.375, 0.07600000500679016, 0.9280000329017639, 0.4400000274181366, 192.0, 0.0, 0.0, 0.0, 0.0, 0.0, 0.0, 0.0, 0.0, 0.0, 1.6299398273511517E9, 2021-08-25 19:03:47.351
182.0, -1761370.875, -1867140.5625, -3060114.75, -4500000.375, -4500000.375, -2480498.0625, -2653740.1875, -2330978.25, -4500000.375, -4500000.375, -4500000.375, -4500000.375, -4500000.375, -4500000.375, -4500000.375, -4500000.375, 0.07600000500679016, 0.9180000424385071, 0.44200003147125244, 192.0, 1.0, 48.0, 14.0, 88.0, 6.5, 104.0, 0.0, 0.0, 0.0, 1.6299398273511617E9, 2021-08-25 19:03:47.351
184.0, -1740338.625, -1812051.1875, -3057329.625, -4500000.375, -4500000.375, -2438163.5625, -2601955.875, -2327982.75, -4500000.375, -4500000.375, -4500000.375, -4500000.375, -4500000.375, -4500000.375, -4500000.375, -4500000.375, 0.07600000500679016, 0.9180000424385071, 0.44200003147125244, 192.0, 0.0, 0.0, 0.0, 0.0, 0.0, 0.0, 0.0, 0.0, 0.0, 1.6299398273511748E9, 2021-08-25 19:03:47.351
186.0, -1759630.125, -1856979.75, -3060624.9375, -4500000.375, -4500000.375, -2477682.1875, -2651953.3125, -2331911.625, -4500000.375, -4500000.375, -4500000.375, -4500000.375, -4500000.375, -4500000.375, -4500000.375, -4500000.375, 0.07600000500679016, 0.9180000424385071, 0.44200003147125244, 192.0, 0.0, 0.0, 0.0, 0.0, 0.0, 0.0, 0.0, 0.0, 0.0, 1.6299398273511832E9, 2021-08-25 19:03:47.351
188.0, -1742389.5, -1823038.125, -3056393.4375, -4500000.375, -4500000.375, -2441871.5625, -2604411.1875, -2327385.1875, -4500000.375, -4500000.375, -4500000.375, -4500000.375, -4500000.375, -4500000.375, -4500000.375, -4500000.375, 0.07600000500679016, 0.9180000424385071, 0.44200003147125244, 192.0, 0.0, 0.0, 0.0, 0.0, 0.0, 0.0, 0.0, 0.0, 0.0, 1.6299398273511934E9, 2021-08-25 19:03:47.351
190.0, -1757235.9375, -1845662.4375, -3060997.3125, -4500000.375, -4500000.375, -2473380.0, -2648648.8125, -2332238.25, -4500000.375, -4500000.375, -4500000.375, -4500000.375, -4500000.375, -4500000.375, -4500000.375, -4500000.375, 0.07600000500679016, 0.9180000424385071, 0.44200003147125244, 192.0, 0.0, 0.0, 0.0, 0.0, 0.0, 0.0, 0.0, 0.0, 0.0, 1.6299398273512034E9, 2021-08-25 19:03:47.351
192.0, -1744876.3125, -1834910.625, -3055765.3125, -4500000.375, -4500000.375, -2446791.75, -2608452.1875, -2326752.75, -4500000.375, -4500000.375, -4500000.375, -4500000.375, -4500000.375, -4500000.375, -4500000.375, -4500000.375, 0.07000000029802322, 0.9180000424385071, 0.43800002336502075, 192.0, 1.0, 24.0, 14.0, 88.0, 6.5, 88.0, 0.0, 0.0, 0.0, 1.6299398273512127E9, 2021-08-25 19:03:47.351
194.0, -1754189.4375, -1833710.0625, -3061715.625, -4500000.375, -4500000.375, -2468412.5625, -2644024.6875, -2332616.0625, -4500000.375, -4500000.375, -4500000.375, -4500000.375, -4500000.375, -4500000.375, -4500000.375, -4500000.375, 0.07000000029802322, 0.9180000424385071, 0.43800002336502075, 192.0, 0.0, 0.0, 0.0, 0.0, 0.0, 0.0, 0.0, 0.0, 0.0, 1.629939827351224E9, 2021-08-25 19:03:47.351
196.0, -1747744.125, -1846727.4375, -3055497.1875, -4500000.375, -4500000.375, -2452425.0, -2613121.5, -2326622.8125, -4500000.375, -4500000.375, -4500000.375, -4500000.375, -4500000.375, -4500000.375, -4500000.375, -4500000.375, 0.07000000029802322, 0.9180000424385071, 0.43800002336502075, 192.0, 0.0, 0.0, 0.0, 0.0, 0.0, 0.0, 0.0, 0.0, 0.0, 1.629939827351236E9, 2021-08-25 19:03:47.351
198.0, -1751224.125, -1822020.375, -3061845.375, -4500000.375, -4500000.375, -2462433.375, -2637783.75, -2332483.5, -4500000.375, -4500000.375, -4500000.375, -4500000.375, -4500000.375, -4500000.375, -4500000.375, -4500000.375, 0.07000000029802322, 0.9180000424385071, 0.43800002336502075, 192.0, 0.0, 0.0, 0.0, 0.0, 0.0, 0.0, 0.0, 0.0, 0.0, 1.629939827351251E9, 2021-08-25 19:03:47.351
200.0, -1750992.9375, -1857799.5, -3055695.0, -4500000.375, -4500000.375, -2458276.5, -2619046.5, -2326764.0, -4500000.375, -4500000.375, -4500000.375, -4500000.375, -4500000.375, -4500000.375, -4500000.375, -4500000.375, 0.07000000029802322, 0.9180000424385071, 0.43800002336502075, 192.0, 0.0, 0.0, 0.0, 0.0, 0.0, 0.0, 0.0, 0.0, 0.0, 1.6299398273512676E9, 2021-08-25 19:03:47.351
202.0, -1748085.9375, -1811001.375, -3061594.875, -4500000.375, -4500000.375, -2456263.6875, -2631230.625, -2332391.8125, -4500000.375, -4500000.375, -4500000.375, -4500000.375, -4500000.375, -4500000.375, -4500000.375, -4500000.375, 0.07600000500679016, 0.9140000343322754, 0.43400001525878906, 192.0, 1.0, 48.0, 14.0, 72.0, 6.5, 72.0, 0.0, 0.0, 0.0, 1.6299398273513052E9, 2021-08-25 19:03:47.351
204.0, -1753953.0, -1867743.5625, -3055308.75, -4500000.375, -4500000.375, -2464167.5625, -2625681.75, -2326623.9375, -4500000.375, -4500000.375, -4500000.375, -4500000.375, -4500000.375, -4500000.375, -4500000.375, -4500000.375, 0.07600000500679016, 0.9140000343322754, 0.43400001525878906, 192.0, 0.0, 0.0, 0.0, 0.0, 0.0, 0.0, 0.0, 0.0, 0.0, 1.6299398273513143E9, 2021-08-25 19:03:47.351
206.0, -1744928.4375, -1801971.375, -3061400.0625, -4500000.375, -4500000.375, -2450189.625, -2624476.3125, -2331840.375, -4500000.375, -4500000.375, -4500000.375, -4500000.375, -4500000.375, -4500000.375, -4500000.375, -4500000.375, 0.07600000500679016, 0.9140000343322754, 0.43400001525878906, 192.0, 0.0, 0.0, 0.0, 0.0, 0.0, 0.0, 0.0, 0.0, 0.0, 1.6299398273513284E9, 2021-08-25 19:03:47.351
208.0, -1756800.9375, -1875757.5, -3055689.1875, -4500000.375, -4500000.375, -2469930.5625, -2632657.5, -2326835.25, -4500000.375, -4500000.375, -4500000.375, -4500000.375, -4500000.375, -4500000.375, -4500000.375, -4500000.375, 0.07600000500679016, 0.9140000343322754, 0.43400001525878906, 192.0, 0.0, 0.0, 0.0, 0.0, 0.0, 0.0, 0.0, 0.0, 0.0, 1.6299398273513403E9, 2021-08-25 19:03:47.351
210.0, -1742499.9375, -1794921.5625, -3061258.5, -4500000.375, -4500000.375, -2445101.4375, -2618031.5625, -2331627.9375, -4500000.375, -4500000.375, -4500000.375, -4500000.375, -4500000.375, -4500000.375, -4500000.375, -4500000.375, 0.07600000500679016, 0.9140000343322754, 0.43400001525878906, 192.0, 0.0, 0.0, 0.0, 0.0, 0.0, 0.0, 0.0, 0.0, 0.0, 1.6299398273513556E9, 2021-08-25 19:03:47.351
212.0, -1759418.25, -1881559.5, -3055686.5625, -4500000.375, -4500000.375, -2474810.0625, -2638717.125, -2327077.6875, -4500000.375, -4500000.375, -4500000.375, -4500000.375, -4500000.375, -4500000.375, -4500000.375, -4500000.375, 0.07000000029802322, 0.9180000424385071, 0.44200003147125244, 192.0, 1.0, 24.0, 14.0, 88.0, 6.5, 104.0, 0.0, 0.0, 0.0, 1.6299398273513696E9, 2021-08-25 19:03:47.351
214.0, -1740266.625, -1791102.5625, -3060292.3125, -4500000.375, -4500000.375, -2440194.5625, -2611635.5625, -2330929.5, -4500000.375, -4500000.375, -4500000.375, -4500000.375, -4500000.375, -4500000.375, -4500000.375, -4500000.375, 0.07000000029802322, 0.9180000424385071, 0.44200003147125244, 192.0, 0.0, 0.0, 0.0, 0.0, 0.0, 0.0, 0.0, 0.0, 0.0, 1.629939827351382E9, 2021-08-25 19:03:47.351
216.0, -1761056.4375, -1883932.875, -3056532.0, -4500000.375, -4500000.375, -2478637.6875, -2644557.375, -2328010.6875, -4500000.375, -4500000.375, -4500000.375, -4500000.375, -4500000.375, -4500000.375, -4500000.375, -4500000.375, 0.07000000029802322, 0.9180000424385071, 0.44200003147125244, 192.0, 0.0, 0.0, 0.0, 0.0, 0.0, 0.0, 0.0, 0.0, 0.0, 1.629939827351402E9, 2021-08-25 19:03:47.351
218.0, -1738784.4375, -1789862.4375, -3060091.125, -4500000.375, -4500000.375, -2437230.1875, -2607547.875, -2330567.25, -4500000.375, -4500000.375, -4500000.375, -4500000.375, -4500000.375, -4500000.375, -4500000.375, -4500000.375, 0.07000000029802322, 0.9180000424385071, 0.44200003147125244, 192.0, 0.0, 0.0, 0.0, 0.0, 0.0, 0.0, 0.0, 0.0, 0.0, 1.629939827351411E9, 2021-08-25 19:03:47.351
220.0, -1762580.0625, -1883588.4375, -3057640.6875, -4500000.375, -4500000.375, -2481637.875, -2649324.1875, -2329217.0625, -4500000.375, -4500000.375, -4500000.375, -4500000.375, -4500000.375, -4500000.375, -4500000.375, -4500000.375, 0.07100000232458115, 0.9170000553131104, 0.4410000294446945, 192.0, 1.0, 32.0, 14.0, 80.0, 6.5, 96.0, 0.0, 0.0, 0.0, 1.629939827351422E9, 2021-08-25 19:03:47.351
222.0, -1738456.125, -1792155.1875, -3059124.0, -4500000.375, -4500000.375, -2435533.5, -2603595.75, -2330067.375, -4500000.375, -4500000.375, -4500000.375, -4500000.375, -4500000.375, -4500000.375, -4500000.375, -4500000.375, 0.07100000232458115, 0.9170000553131104, 0.4410000294446945, 192.0, 0.0, 0.0, 0.0, 0.0, 0.0, 0.0, 0.0, 0.0, 0.0, 1.629939827351432E9, 2021-08-25 19:03:47.351
224.0, -1762996.875, -1880220.0, -3058091.8125, -4500000.375, -4500000.375, -2482768.125, -2652299.4375, -2329773.9375, -4500000.375, -4500000.375, -4500000.375, -4500000.375, -4500000.375, -4500000.375, -4500000.375, -4500000.375, 0.07100000232458115, 0.9170000553131104, 0.4410000294446945, 192.0, 0.0, 0.0, 0.0, 0.0, 0.0, 0.0, 0.0, 0.0, 0.0, 1.6299398278014305E9, 2021-08-25 19:03:47.801
226.0, -1738603.125, -1796779.875, -3058478.0625, -4500000.375, -4500000.375, -2435234.0625, -2601459.1875, -2329348.5, -4500000.375, -4500000.375, -4500000.375, -4500000.375, -4500000.375, -4500000.375, -4500000.375, -4500000.375, 0.07100000232458115, 0.9170000553131104, 0.4410000294446945, 192.0, 0.0, 0.0, 0.0, 0.0, 0.0, 0.0, 0.0, 0.0, 0.0, 1.6299398278016803E9, 2021-08-25 19:03:47.801
228.0, -1762727.0625, -1873555.3125, -3059289.1875, -4500000.375, -4500000.375, -2482354.6875, -2653817.0625, -2330897.8125, -4500000.375, -4500000.375, -4500000.375, -4500000.375, -4500000.375, -4500000.375, -4500000.375, -4500000.375, 0.07100000232458115, 0.9170000553131104, 0.4410000294446945, 192.0, 0.0, 0.0, 0.0, 0.0, 0.0, 0.0, 0.0, 0.0, 0.0, 1.6299398278016884E9, 2021-08-25 19:03:47.801
230.0, -1739278.125, -1804336.6875, -3057667.5, -4500000.375, -4500000.375, -2436442.6875, -2601376.5, -2328633.375, -4500000.375, -4500000.375, -4500000.375, -4500000.375, -4500000.375, -4500000.375, -4500000.375, -4500000.375, 0.06950000301003456, 0.9175000488758087, 0.44050002843141556, 192.0, 1.0, 16.0, 14.0, 88.0, 6.5, 96.0, 0.0, 0.0, 0.0, 1.6299398278016968E9, 2021-08-25 19:03:47.801
