%OpenBCI Raw EEG Data
%Number of channels = 16
%Sample Rate = 125 Hz
%Board = OpenBCI_GUI$BoardCytonSerialDaisy
Sample Index, EXG Channel 0, EXG Channel 1, EXG Channel 2, EXG Channel 3, EXG Channel 4, EXG Channel 5, EXG Channel 6, EXG Channel 7, EXG Channel 8, EXG Channel 9, EXG Channel 10, EXG Channel 11, EXG Channel 12, EXG Channel 13, EXG Channel 14, EXG Channel 15, Accel Channel 0, Accel Channel 1, Accel Channel 2, Other, Other, Other, Other, Other, Other, Other, Analog Channel 0, Analog Channel 1, Analog Channel 2, Timestamp, Timestamp (Formatted)
210.0, -1883230.6875, -2124651.9375, -3023547.1875, -4500000.375, -4500000.375, -3401796.0, -1859991.375, -2261436.0, -4500000.375, -4500000.375, -4500000.375, 4500000.0, 4500000.0, -4500000.375, -4500000.375, -4500000.375, 0.032999999821186066, 0.47200003266334534, 0.18000000715255737, 192.0, 1.0, 8.0, 14.5, 64.0, 5.5, 32.0, 0.0, 0.0, 0.0, 1.6299356907027636E9, 2021-08-25 17:54:50.702
212.0, -1886730.9375, -2130232.5, -3022472.625, -4500000.375, -4500000.375, -3400294.5, -1876412.4375, -2260836.375, -4500000.375, -4500000.375, -4500000.375, 4500000.0, 4500000.0, -4500000.375, -4500000.375, -4500000.375, 0.032999999821186066, 0.47200003266334534, 0.18000000715255737, 192.0, 0.0, 0.0, 0.0, 0.0, 0.0, 0.0, 0.0, 0.0, 0.0, 1.6299356907027705E9, 2021-08-25 17:54:50.702
214.0, -1882820.8125, -2123799.5625, -3024430.125, -4500000.375, -4500000.375, -3402437.625, -1857390.1875, -2261545.5, -4500000.375, -4500000.375, -4500000.375, 4500000.0, 4500000.0, -4500000.375, -4500000.375, -4500000.375, 0.032999999821186066, 0.47200003266334534, 0.18000000715255737, 192.0, 0.0, 0.0, 0.0, 0.0, 0.0, 0.0, 0.0, 0.0, 0.0, 1.6299356907027771E9, 2021-08-25 17:54:50.702
216.0, -1888179.75, -2131429.875, -3022868.0625, -4500000.375, -4500000.375, -3400339.125, -1879271.0625, -2261505.1875, -4500000.375, -4500000.375, -4500000.375, 4500000.0, 4500000.0, -4500000.375, -4500000.375, -4500000.375, 0.032999999821186066, 0.47200003266334534, 0.18000000715255737, 192.0, 0.0, 0.0, 0.0, 0.0, 0.0, 0.0, 0.0, 0.0, 0.0, 1.6299356907027838E9, 2021-08-25 17:54:50.702
218.0, -1883261.25, -2123045.8125, -3025255.125, -4500000.375, -4500000.375, -3403099.5, -1855219.6875, -2262021.375, -4500000.375, -4500000.375, -4500000.375, 4500000.0, 4500000.0, -4500000.375, -4500000.375, -4500000.375, 0.032999999821186066, 0.47200003266334534, 0.18000000715255737, 192.0, 0.0, 0.0, 0.0, 0.0, 0.0, 0.0, 0.0, 0.0, 0.0, 1.6299356907027905E9, 2021-08-25 17:54:50.702
220.0, -1888655.0625, -2131684.6875, -3022429.3125, -4500000.375, -4500000.375, -3399465.375, -1880877.75, -2260828.875, -4500000.375, -4500000.375, -4500000.375, 4500000.0, 4500000.0, -4500000.375, -4500000.375, -4500000.375, 0.04650000110268593, 0.7070000320672989, 0.2670000046491623, 192.0, 0.5, 112.0, 14.5, 56.0, 5.5, 8.0, 0.0, 0.0, 0.0, 1.6299356907027972E9, 2021-08-25 17:54:50.702
222.0, -1882867.5, -2122227.1875, -3025163.4375, -4500000.375, -4500000.375, -3402808.875, -1853601.9375, -2261811.5625, -4500000.375, -4500000.375, -4500000.375, 4500000.0, 4500000.0, -4500000.375, -4500000.375, -4500000.375, 0.04650000110268593, 0.7070000320672989, 0.2670000046491623, 192.0, 0.0, 0.0, 0.0, 0.0, 0.0, 0.0, 0.0, 0.0, 0.0, 1.6299356907028039E9, 2021-08-25 17:54:50.702
224.0, -1889152.875, -2132220.0, -3022904.0625, -4500000.375, -4500000.375, -3399470.625, -1881898.6875, -2261270.8125, -4500000.375, -4500000.375, -4500000.375, 4500000.0, 4500000.0, -4500000.375, -4500000.375, -4500000.375, 0.04650000110268593, 0.7070000320672989, 0.2670000046491623, 192.0, 0.0, 0.0, 0.0, 0.0, 0.0, 0.0, 0.0, 0.0, 0.0, 1.6299356907028103E9, 2021-08-25 17:54:50.702
226.0, -1882717.6875, -2122231.5, -3025968.1875, -4500000.375, -4500000.375, -3403094.25, -1853106.75, -2261886.1875, -4500000.375, -4500000.375, -4500000.375, 4500000.0, 4500000.0, -4500000.375, -4500000.375, -4500000.375, 0.04650000110268593, 0.7070000320672989, 0.2670000046491623, 192.0, 0.0, 0.0, 0.0, 0.0, 0.0, 0.0, 0.0, 0.0, 0.0, 1.6299356907028172E9, 2021-08-25 17:54:50.702
228.0, -1889122.3125, -2132532.375, -3023401.3125, -4500000.375, -4500000.375, -3399543.0, -1882144.875, -2261265.375, -4500000.375, -4500000.375, -4500000.375, 4500000.0, 4500000.0, -4500000.375, -4500000.375, -4500000.375, 0.04650000110268593, 0.7070000320672989, 0.2670000046491623, 192.0, 0.0, 0.0, 0.0, 0.0, 0.0, 0.0, 0.0, 0.0, 0.0, 1.6299356907028239E9, 2021-08-25 17:54:50.702
230.0, -1882872.75, -2122587.1875, -3026338.875, -4500000.375, -4500000.375, -3403237.125, -1853993.4375, -2261954.8125, -4500000.375, -4500000.375, -4500000.375, 4500000.0, 4500000.0, -4500000.375, -4500000.375, -4500000.375, 0.05225000157952309, 0.8265000358223915, 0.31050000339746475, 192.0, 0.5, 104.0, 14.5, 72.0, 5.5, 8.0, 0.0, 0.0, 0.0, 1.6299356907028303E9, 2021-08-25 17:54:50.702
232.0, -1889288.625, -2132377.3125, -3023661.9375, -4500000.375, -4500000.375, -3399645.0, -1881323.0625, -2261445.75, -4500000.375, -4500000.375, -4500000.375, 4500000.0, 4500000.0, -4500000.375, -4500000.375, -4500000.375, 0.05225000157952309, 0.8265000358223915, 0.31050000339746475, 192.0, 0.0, 0.0, 0.0, 0.0, 0.0, 0.0, 0.0, 0.0, 0.0, 1.629935690702837E9, 2021-08-25 17:54:50.702
234.0, -1883066.4375, -2122670.4375, -3026123.625, -4500000.375, -4500000.375, -3402836.25, -1854954.75, -2261851.3125, -4500000.375, -4500000.375, -4500000.375, 4500000.0, 4500000.0, -4500000.375, -4500000.375, -4500000.375, 0.05225000157952309, 0.8265000358223915, 0.31050000339746475, 192.0, 0.0, 0.0, 0.0, 0.0, 0.0, 0.0, 0.0, 0.0, 0.0, 1.6299356907028437E9, 2021-08-25 17:54:50.702
236.0, -1889481.75, -2131996.3125, -3024628.125, -4500000.375, -4500000.375, -3400207.5, -1879793.625, -2261675.25, -4500000.375, -4500000.375, -4500000.375, 4500000.0, 4500000.0, -4500000.375, -4500000.375, -4500000.375, 0.05225000157952309, 0.8265000358223915, 0.31050000339746475, 192.0, 0.0, 0.0, 0.0, 0.0, 0.0, 0.0, 0.0, 0.0, 0.0, 1.6299356907028503E9, 2021-08-25 17:54:50.702
238.0, -1884065.25, -2123867.625, -3027064.6875, -4500000.375, -4500000.375, -3403237.875, -1857348.375, -2261944.125, -4500000.375, -4500000.375, -4500000.375, 4500000.0, 4500000.0, -4500000.375, -4500000.375, -4500000.375, 0.05225000157952309, 0.8265000358223915, 0.31050000339746475, 192.0, 0.0, 0.0, 0.0, 0.0, 0.0, 0.0, 0.0, 0.0, 0.0, 1.629935690702876E9, 2021-08-25 17:54:50.702
240.0, -1889307.375, -2131579.125, -3025329.1875, -4500000.375, -4500000.375, -3400498.5, -1877599.125, -2262041.625, -4500000.375, -4500000.375, -4500000.375, 4500000.0, 4500000.0, -4500000.375, -4500000.375, -4500000.375, 0.05612500198185444, 0.8872500546276569, 0.3342500068247318, 192.0, 0.5, 112.0, 14.5, 80.0, 5.5, 24.0, 0.0, 0.0, 0.0, 1.6299356907028847E9, 2021-08-25 17:54:50.702
242.0, -1884928.5, -2124996.9375, -3027015.75, -4500000.375, -4500000.375, -3402867.0, -1860474.75, -2262077.625, -4500000.375, -4500000.375, -4500000.375, 4500000.0, 4500000.0, -4500000.375, -4500000.375, -4500000.375, 0.05612500198185444, 0.8872500546276569, 0.3342500068247318, 192.0, 0.0, 0.0, 0.0, 0.0, 0.0, 0.0, 0.0, 0.0, 0.0, 1.6299356907029052E9, 2021-08-25 17:54:50.702
244.0, -1888406.25, -2130520.125, -3025761.0, -4500000.375, -4500000.375, -3400783.875, -1874531.625, -2261907.5625, -4500000.375, -4500000.375, -4500000.375, 4500000.0, 4500000.0, -4500000.375, -4500000.375, -4500000.375, 0.05612500198185444, 0.8872500546276569, 0.3342500068247318, 192.0, 0.0, 0.0, 0.0, 0.0, 0.0, 0.0, 0.0, 0.0, 0.0, 1.6299356907029169E9, 2021-08-25 17:54:50.702
246.0, -1885002.0, -2126425.5, -3026903.625, -4500000.375, -4500000.375, -3402347.625, -1863649.875, -2261606.0625, -4500000.375, -4500000.375, -4500000.375, 4500000.0, 4500000.0, -4500000.375, -4500000.375, -4500000.375, 0.05612500198185444, 0.8872500546276569, 0.3342500068247318, 192.0, 0.0, 0.0, 0.0, 0.0, 0.0, 0.0, 0.0, 0.0, 0.0, 1.629935690702924E9, 2021-08-25 17:54:50.702
248.0, -1887054.9375, -2129332.875, -3026083.5, -4500000.375, -4500000.375, -3400775.625, -1870698.1875, -2261617.875, -4500000.375, -4500000.375, -4500000.375, 4500000.0, 4500000.0, -4500000.375, -4500000.375, -4500000.375, 0.05612500198185444, 0.8872500546276569, 0.3342500068247318, 192.0, 0.0, 0.0, 0.0, 0.0, 0.0, 0.0, 0.0, 0.0, 0.0, 1.629935690702944E9, 2021-08-25 17:54:50.702
250.0, -1885942.875, -2126803.125, -3025781.4375, -4500000.375, -4500000.375, -3400687.875, -1866259.125, -2260710.75, -4500000.375, -4500000.375, -4500000.375, 4500000.0, 4500000.0, -4500000.375, -4500000.375, -4500000.375, 0.06400000303983688, 0.9440000653266907, 0.3660000264644623, 192.0, 1.0, 0.0, 14.5, 64.0, 5.5, 56.0, 0.0, 0.0, 0.0, 1.6299356907029512E9, 2021-08-25 17:54:50.702
0.0, -1220531.8125, -1430288.625, -1697400.75, -2250000.1875, -2250000.1875, -1987476.1875, -1420417.5, -1346071.03125, -2250000.1875, -2250000.1875, -2250000.1875, 2249999.625, 2249999.625, -2250000.1875, -2250000.1875, -2250000.1875, 0.03200000151991844, 0.9640000462532043, 0.35600000619888306, 192.0, 0.5, 0.0, 15.0, 16.0, 5.5, 16.0, 0.0, 0.0, 0.0, 1.6299356908055954E9, 2021-08-25 17:54:50.805
2.0, -2433861.9375, -2850145.125, -3396185.625, -4500000.375, -4500000.375, -3976499.625, -2820677.25, -2690991.375, 4500000.0, 4500000.0, 4500000.0, 4500000.0, 4500000.0, -4500000.375, -4500000.375, -4500000.375, 0.03200000151991844, 0.9640000462532043, 0.35600000619888306, 192.0, 0.0, 0.0, 0.0, 0.0, 0.0, 0.0, 0.0, 0.0, 0.0, 1.6299356912846906E9, 2021-08-25 17:54:51.284
4.0, -2439373.3125, -2859592.875, -3395108.25, -4500000.375, -4500000.375, -3975124.125, -2838878.0625, -2692029.375, 4500000.0, 4500000.0, 4500000.0, 4500000.0, 4500000.0, -4500000.375, -4500000.375, -4500000.375, 0.03200000151991844, 0.9640000462532043, 0.35600000619888306, 192.0, 0.0, 0.0, 0.0, 0.0, 0.0, 0.0, 0.0, 0.0, 0.0, 1.6299356912846987E9, 2021-08-25 17:54:51.284
6.0, -2434398.375, -2850859.5, -3396269.625, -4500000.375, -4500000.375, -3976435.125, -2821808.625, -2690808.375, 4500000.0, 4500000.0, 4500000.0, 4500000.0, 4500000.0, -4500000.375, -4500000.375, -4500000.375, 0.026000001467764378, 0.9670000374317169, 0.35200001299381256, 192.0, 0.0, 80.0, 15.0, 40.0, 5.0, 112.0, 0.0, 0.0, 0.0, 1.6299356912847445E9, 2021-08-25 17:54:51.284
8.0, -2439191.4375, -2859327.375, -3395541.75, -4500000.375, -4500000.375, -3975327.0, -2838170.625, -2692213.3125, 4500000.0, 4500000.0, 4500000.0, 4500000.0, 4500000.0, -4500000.375, -4500000.375, -4500000.375, 0.026000001467764378, 0.9670000374317169, 0.35200001299381256, 192.0, 0.0, 0.0, 0.0, 0.0, 0.0, 0.0, 0.0, 0.0, 0.0, 1.6299356912847543E9, 2021-08-25 17:54:51.284
10.0, -2435226.5625, -2851881.0, -3396394.125, -4500000.375, -4500000.375, -3976514.25, -2823559.5, -2691057.9375, 4500000.0, 4500000.0, 4500000.0, 4500000.0, 4500000.0, -4500000.375, -4500000.375, -4500000.375, 0.026000001467764378, 0.9670000374317169, 0.35200001299381256, 192.0, 0.0, 0.0, 0.0, 0.0, 0.0, 0.0, 0.0, 0.0, 0.0, 1.6299356912847636E9, 2021-08-25 17:54:51.284
12.0, -2438535.375, -2858648.25, -3395758.5, -4500000.375, -4500000.375, -3975740.625, -2836767.75, -2692332.375, 4500000.0, 4500000.0, 4500000.0, 4500000.0, 4500000.0, -4500000.375, -4500000.375, -4500000.375, 0.026000001467764378, 0.9670000374317169, 0.35200001299381256, 192.0, 0.0, 0.0, 0.0, 0.0, 0.0, 0.0, 0.0, 0.0, 0.0, 1.629935691284774E9, 2021-08-25 17:54:51.284
14.0, -2435998.5, -2853134.0625, -3396444.375, -4500000.375, -4500000.375, -3976718.625, -2825976.1875, -2691378.5625, 4500000.0, 4500000.0, 4500000.0, 4500000.0, 4500000.0, -4500000.375, -4500000.375, -4500000.375, 0.026000001467764378, 0.9670000374317169, 0.35200001299381256, 192.0, 0.0, 0.0, 0.0, 0.0, 0.0, 0.0, 0.0, 0.0, 0.0, 1.6299356912847855E9, 2021-08-25 17:54:51.284
16.0, -2437978.5, -2858283.9375, -3396310.5, -4500000.375, -4500000.375, -3976542.75, -2835392.4375, -2692535.25, 4500000.0, 4500000.0, 4500000.0, 4500000.0, 4500000.0, -4500000.375, -4500000.375, -4500000.375, 0.017000000923871994, 0.9635000377893448, 0.3490000143647194, 192.0, 0.0, 32.0, 15.0, 0.0, 5.0, 104.0, 0.0, 0.0, 0.0, 1.6299356912847943E9, 2021-08-25 17:54:51.284
18.0, -2437062.375, -2854915.6875, -3396721.5, -4500000.375, -4500000.375, -3977224.875, -2828889.5625, -2691758.4375, 4500000.0, 4500000.0, 4500000.0, 4500000.0, 4500000.0, -4500000.375, -4500000.375, -4500000.375, 0.017000000923871994, 0.9635000377893448, 0.3490000143647194, 192.0, 0.0, 0.0, 0.0, 0.0, 0.0, 0.0, 0.0, 0.0, 0.0, 1.629935691284804E9, 2021-08-25 17:54:51.284
20.0, -2437357.3125, -2857307.0625, -3396944.625, -4500000.375, -4500000.375, -3977496.375, -2833665.5625, -2692825.875, 4500000.0, 4500000.0, 4500000.0, 4500000.0, 4500000.0, -4500000.375, -4500000.375, -4500000.375, 0.017000000923871994, 0.9635000377893448, 0.3490000143647194, 192.0, 0.0, 0.0, 0.0, 0.0, 0.0, 0.0, 0.0, 0.0, 0.0, 1.6299356912848136E9, 2021-08-25 17:54:51.284
22.0, -2438129.25, -2856383.8125, -3396749.25, -4500000.375, -4500000.375, -3977395.875, -2831941.5, -2692030.5, 4500000.0, 4500000.0, 4500000.0, 4500000.0, 4500000.0, -4500000.375, -4500000.375, -4500000.375, 0.017000000923871994, 0.9635000377893448, 0.3490000143647194, 192.0, 0.0, 0.0, 0.0, 0.0, 0.0, 0.0, 0.0, 0.0, 0.0, 1.629935691284839E9, 2021-08-25 17:54:51.284
24.0, -2436437.25, -2856343.125, -3397231.5, -4500000.375, -4500000.375, -3977716.875, -2831518.6875, -2692583.4375, 4500000.0, 4500000.0, 4500000.0, 4500000.0, 4500000.0, -4500000.375, -4500000.375, -4500000.375, 0.017000000923871994, 0.9635000377893448, 0.3490000143647194, 192.0, 0.0, 0.0, 0.0, 0.0, 0.0, 0.0, 0.0, 0.0, 0.0, 1.6299356912848487E9, 2021-08-25 17:54:51.284
26.0, -2438945.8125, -2858222.25, -3397185.0, -4500000.375, -4500000.375, -3977575.875, -2834664.9375, -2692494.9375, 4500000.0, 4500000.0, 4500000.0, 4500000.0, 4500000.0, -4500000.375, -4500000.375, -4500000.375, 0.012500000651925802, 0.9537500515580177, 0.3525000102818012, 192.0, 0.0, 32.0, 14.5, 64.0, 5.5, 16.0, 0.0, 0.0, 0.0, 1.6299356912848644E9, 2021-08-25 17:54:51.284
28.0, -2435622.5625, -2855543.8125, -3397767.0, -4500000.375, -4500000.375, -3977998.5, -2829316.6875, -2692474.5, 4500000.0, 4500000.0, 4500000.0, 4500000.0, 4500000.0, -4500000.375, -4500000.375, -4500000.375, 0.012500000651925802, 0.9537500515580177, 0.3525000102818012, 192.0, 0.0, 0.0, 0.0, 0.0, 0.0, 0.0, 0.0, 0.0, 0.0, 1.6299356912848737E9, 2021-08-25 17:54:51.284
30.0, -2439483.1875, -2859427.125, -3396982.125, -4500000.375, -4500000.375, -3977265.75, -2836967.4375, -2692316.8125, 4500000.0, 4500000.0, 4500000.0, 4500000.0, 4500000.0, -4500000.375, -4500000.375, -4500000.375, 0.012500000651925802, 0.9537500515580177, 0.3525000102818012, 192.0, 0.0, 0.0, 0.0, 0.0, 0.0, 0.0, 0.0, 0.0, 0.0, 1.6299356912848825E9, 2021-08-25 17:54:51.284
32.0, -2435010.375, -2854408.6875, -3397909.125, -4500000.375, -4500000.375, -3978191.625, -2826879.5625, -2692236.9375, 4500000.0, 4500000.0, 4500000.0, 4500000.0, 4500000.0, -4500000.375, -4500000.375, -4500000.375, 0.012500000651925802, 0.9537500515580177, 0.3525000102818012, 192.0, 0.0, 0.0, 0.0, 0.0, 0.0, 0.0, 0.0, 0.0, 0.0, 1.6299356912848911E9, 2021-08-25 17:54:51.284
34.0, -2440331.8125, -2860470.5625, -3396778.875, -4500000.375, -4500000.375, -3977047.875, -2838762.375, -2692543.3125, 4500000.0, 4500000.0, 4500000.0, 4500000.0, 4500000.0, -4500000.375, -4500000.375, -4500000.375, 0.012500000651925802, 0.9537500515580177, 0.3525000102818012, 192.0, 0.0, 0.0, 0.0, 0.0, 0.0, 0.0, 0.0, 0.0, 0.0, 1.6299356912849004E9, 2021-08-25 17:54:51.284
36.0, -2434897.6875, -2853356.625, -3397892.25, -4500000.375, -4500000.375, -3978444.375, -2825029.875, -2692407.5625, 4500000.0, 4500000.0, 4500000.0, 4500000.0, 4500000.0, -4500000.375, -4500000.375, -4500000.375, 0.008250000420957804, 0.9498750455677509, 0.35825001634657383, 192.0, 0.0, 16.0, 14.5, 72.0, 5.5, 48.0, 0.0, 0.0, 0.0, 1.629935691284909E9, 2021-08-25 17:54:51.284
38.0, -2441037.375, -2861318.625, -3396819.375, -4500000.375, -4500000.375, -3977380.5, -2840670.375, -2693117.25, 4500000.0, 4500000.0, 4500000.0, 4500000.0, 4500000.0, -4500000.375, -4500000.375, -4500000.375, 0.008250000420957804, 0.9498750455677509, 0.35825001634657383, 192.0, 0.0, 0.0, 0.0, 0.0, 0.0, 0.0, 0.0, 0.0, 0.0, 1.6299356912849271E9, 2021-08-25 17:54:51.284
40.0, -2434558.6875, -2852929.6875, -3398191.875, -4500000.375, -4500000.375, -3979032.375, -2824221.0, -2692475.625, 4500000.0, 4500000.0, 4500000.0, 4500000.0, 4500000.0, -4500000.375, -4500000.375, -4500000.375, 0.008250000420957804, 0.9498750455677509, 0.35825001634657383, 192.0, 0.0, 0.0, 0.0, 0.0, 0.0, 0.0, 0.0, 0.0, 0.0, 1.6299356912849343E9, 2021-08-25 17:54:51.284
42.0, -2441300.625, -2862183.9375, -3397060.5, -4500000.375, -4500000.375, -3977795.625, -2842467.5625, -2693489.0625, 4500000.0, 4500000.0, 4500000.0, 4500000.0, 4500000.0, -4500000.375, -4500000.375, -4500000.375, 0.008250000420957804, 0.9498750455677509, 0.35825001634657383, 192.0, 0.0, 0.0, 0.0, 0.0, 0.0, 0.0, 0.0, 0.0, 0.0, 1.6299356912849417E9, 2021-08-25 17:54:51.284
44.0, -2434610.8125, -2852864.8125, -3398592.375, -4500000.375, -4500000.375, -3979473.0, -2823810.0, -2692578.75, 4500000.0, 4500000.0, 4500000.0, 4500000.0, 4500000.0, -4500000.375, -4500000.375, -4500000.375, 0.008250000420957804, 0.9498750455677509, 0.35825001634657383, 192.0, 0.0, 0.0, 0.0, 0.0, 0.0, 0.0, 0.0, 0.0, 0.0, 1.6299356912849488E9, 2021-08-25 17:54:51.284
46.0, -2441265.9375, -2862491.25, -3397235.625, -4500000.375, -4500000.375, -3977818.125, -2843196.0, -2693479.3125, 4500000.0, 4500000.0, 4500000.0, 4500000.0, 4500000.0, -4500000.375, -4500000.375, -4500000.375, 0.0031250001629814506, 0.9469375554472208, 0.363125023432076, 192.0, 127.5, 120.0, 14.5, 64.0, 5.5, 64.0, 0.0, 0.0, 0.0, 1.6299356912849572E9, 2021-08-25 17:54:51.284
48.0, -2434794.75, -2852578.3125, -3398479.875, -4500000.375, -4500000.375, -3979154.625, -2823458.625, -2692291.125, 4500000.0, 4500000.0, 4500000.0, 4500000.0, 4500000.0, -4500000.375, -4500000.375, -4500000.375, 0.0031250001629814506, 0.9469375554472208, 0.363125023432076, 192.0, 0.0, 0.0, 0.0, 0.0, 0.0, 0.0, 0.0, 0.0, 0.0, 1.629935691284964E9, 2021-08-25 17:54:51.284
50.0, -2440958.4375, -2862367.875, -3397290.375, -4500000.375, -4500000.375, -3977794.125, -2842994.8125, -2693486.8125, 4500000.0, 4500000.0, 4500000.0, 4500000.0, 4500000.0, -4500000.375, -4500000.375, -4500000.375, 0.0031250001629814506, 0.9469375554472208, 0.363125023432076, 192.0, 0.0, 0.0, 0.0, 0.0, 0.0, 0.0, 0.0, 0.0, 0.0, 1.6299356912849712E9, 2021-08-25 17:54:51.284
52.0, -2435106.375, -2852980.125, -3398566.125, -4500000.375, -4500000.375, -3979300.5, -2824149.0, -2692284.75, 4500000.0, 4500000.0, 4500000.0, 4500000.0, 4500000.0, -4500000.375, -4500000.375, -4500000.375, 0.0031250001629814506, 0.9469375554472208, 0.363125023432076, 192.0, 0.0, 0.0, 0.0, 0.0, 0.0, 0.0, 0.0, 0.0, 0.0, 1.6299356912849782E9, 2021-08-25 17:54:51.284
54.0, -2440508.4375, -2861934.9375, -3397384.875, -4500000.375, -4500000.375, -3977779.5, -2842216.5, -2693365.125, 4500000.0, 4500000.0, 4500000.0, 4500000.0, 4500000.0, -4500000.375, -4500000.375, -4500000.375, 0.0031250001629814506, 0.9469375554472208, 0.363125023432076, 192.0, 0.0, 0.0, 0.0, 0.0, 0.0, 0.0, 0.0, 0.0, 0.0, 1.6299356912849853E9, 2021-08-25 17:54:51.284
56.0, -2435432.625, -2853561.5625, -3398361.75, -4500000.375, -4500000.375, -3978913.5, -2824875.375, -2692008.9375, 4500000.0, 4500000.0, 4500000.0, 4500000.0, 4500000.0, -4500000.375, -4500000.375, -4500000.375, 0.0020000000949949026, 0.9340000152587891, 0.3680000305175781, 192.0, 0.0, 8.0, 14.5, 24.0, 5.5, 64.0, 0.0, 0.0, 0.0, 1.6299356912849927E9, 2021-08-25 17:54:51.284
58.0, -2440106.625, -2861665.125, -3397560.75, -4500000.375, -4500000.375, -3977879.25, -2840923.125, -2693512.6875, 4500000.0, 4500000.0, 4500000.0, 4500000.0, 4500000.0, -4500000.375, -4500000.375, -4500000.375, 0.0020000000949949026, 0.9340000152587891, 0.3680000305175781, 192.0, 0.0, 0.0, 0.0, 0.0, 0.0, 0.0, 0.0, 0.0, 0.0, 1.6299356912850022E9, 2021-08-25 17:54:51.285
60.0, -2436426.5625, -2854408.6875, -3398212.125, -4500000.375, -4500000.375, -3978814.875, -2826736.3125, -2692332.9375, 4500000.0, 4500000.0, 4500000.0, 4500000.0, 4500000.0, -4500000.375, -4500000.375, -4500000.375, 0.0020000000949949026, 0.9340000152587891, 0.3680000305175781, 192.0, 0.0, 0.0, 0.0, 0.0, 0.0, 0.0, 0.0, 0.0, 0.0, 1.6299356912850246E9, 2021-08-25 17:54:51.285
62.0, -2439566.4375, -2860832.625, -3397695.375, -4500000.375, -4500000.375, -3978250.5, -2839560.5625, -2693685.9375, 4500000.0, 4500000.0, 4500000.0, 4500000.0, 4500000.0, -4500000.375, -4500000.375, -4500000.375, 0.0020000000949949026, 0.9340000152587891, 0.3680000305175781, 192.0, 0.0, 0.0, 0.0, 0.0, 0.0, 0.0, 0.0, 0.0, 0.0, 1.629935691285032E9, 2021-08-25 17:54:51.285
64.0, -2437257.0, -2855398.5, -3397885.5, -4500000.375, -4500000.375, -3978620.625, -2828764.6875, -2692443.9375, 4500000.0, 4500000.0, 4500000.0, 4500000.0, 4500000.0, -4500000.375, -4500000.375, -4500000.375, 0.0020000000949949026, 0.9340000152587891, 0.3680000305175781, 192.0, 0.0, 0.0, 0.0, 0.0, 0.0, 0.0, 0.0, 0.0, 0.0, 1.629935691285039E9, 2021-08-25 17:54:51.285
66.0, -2438784.1875, -2859567.5625, -3397618.125, -4500000.375, -4500000.375, -3978213.75, -2837098.3125, -2693633.25, 4500000.0, 4500000.0, 4500000.0, 4500000.0, 4500000.0, -4500000.375, -4500000.375, -4500000.375, 0.010000000707805157, 0.9240000247955322, 0.3660000264644623, 192.0, 0.0, 40.0, 14.0, 112.0, 5.5, 56.0, 0.0, 0.0, 0.0, 1.629935691285046E9, 2021-08-25 17:54:51.285
68.0, -2437968.9375, -2856388.125, -3397510.5, -4500000.375, -4500000.375, -3978285.375, -2830911.0, -2692553.4375, 4500000.0, 4500000.0, 4500000.0, 4500000.0, 4500000.0, -4500000.375, -4500000.375, -4500000.375, 0.010000000707805157, 0.9240000247955322, 0.3660000264644623, 192.0, 0.0, 0.0, 0.0, 0.0, 0.0, 0.0, 0.0, 0.0, 0.0, 1.6299356912850533E9, 2021-08-25 17:54:51.285
70.0, -2437637.8125, -2858127.375, -3397606.5, -4500000.375, -4500000.375, -3978282.375, -2834264.25, -2693240.0625, 4500000.0, 4500000.0, 4500000.0, 4500000.0, 4500000.0, -4500000.375, -4500000.375, -4500000.375, 0.010000000707805157, 0.9240000247955322, 0.3660000264644623, 192.0, 0.0, 0.0, 0.0, 0.0, 0.0, 0.0, 0.0, 0.0, 0.0, 1.6299356912850602E9, 2021-08-25 17:54:51.285
72.0, -2438877.5625, -2857780.6875, -3397584.0, -4500000.375, -4500000.375, -3978256.875, -2833306.125, -2692613.4375, 4500000.0, 4500000.0, 4500000.0, 4500000.0, 4500000.0, -4500000.375, -4500000.375, -4500000.375, 0.010000000707805157, 0.9240000247955322, 0.3660000264644623, 192.0, 0.0, 0.0, 0.0, 0.0, 0.0, 0.0, 0.0, 0.0, 0.0, 1.6299356912850676E9, 2021-08-25 17:54:51.285
74.0, -2437143.75, -2857197.5625, -3398038.875, -4500000.375, -4500000.375, -3978682.5, -2832066.375, -2693124.1875, 4500000.0, 4500000.0, 4500000.0, 4500000.0, 4500000.0, -4500000.375, -4500000.375, -4500000.375, 0.010000000707805157, 0.9240000247955322, 0.3660000264644623, 192.0, 0.0, 0.0, 0.0, 0.0, 0.0, 0.0, 0.0, 0.0, 0.0, 1.6299356912850745E9, 2021-08-25 17:54:51.285
76.0, -2439963.375, -2859079.5, -3397553.25, -4500000.375, -4500000.375, -3978348.375, -2835941.0625, -2692849.5, 4500000.0, 4500000.0, 4500000.0, 4500000.0, 4500000.0, -4500000.375, -4500000.375, -4500000.375, 0.010000000707805157, 0.9280000329017639, 0.3660000264644623, 192.0, 0.0, 40.0, 14.5, 0.0, 5.5, 56.0, 0.0, 0.0, 0.0, 1.6299356912850816E9, 2021-08-25 17:54:51.285
78.0, -2436347.25, -2855685.375, -3398086.125, -4500000.375, -4500000.375, -3978944.625, -2829452.8125, -2692873.6875, 4500000.0, 4500000.0, 4500000.0, 4500000.0, 4500000.0, -4500000.375, -4500000.375, -4500000.375, 0.010000000707805157, 0.9280000329017639, 0.3660000264644623, 192.0, 0.0, 0.0, 0.0, 0.0, 0.0, 0.0, 0.0, 0.0, 0.0, 1.6299356912850885E9, 2021-08-25 17:54:51.285
80.0, -2440501.5, -2859928.6875, -3397212.75, -4500000.375, -4500000.375, -3978239.25, -2838279.0, -2693006.25, 4500000.0, 4500000.0, 4500000.0, 4500000.0, 4500000.0, -4500000.375, -4500000.375, -4500000.375, 0.010000000707805157, 0.9280000329017639, 0.3660000264644623, 192.0, 0.0, 0.0, 0.0, 0.0, 0.0, 0.0, 0.0, 0.0, 0.0, 1.6299356912850957E9, 2021-08-25 17:54:51.285
82.0, -2435466.375, -2854599.5625, -3398132.25, -4500000.375, -4500000.375, -3979304.25, -2827107.5625, -2692687.5, 4500000.0, 4500000.0, 4500000.0, 4500000.0, 4500000.0, -4500000.375, -4500000.375, -4500000.375, 0.010000000707805157, 0.9280000329017639, 0.3660000264644623, 192.0, 0.0, 0.0, 0.0, 0.0, 0.0, 0.0, 0.0, 0.0, 0.0, 1.6299356912851043E9, 2021-08-25 17:54:51.285
84.0, -2440820.625, -2861079.9375, -3397059.75, -4500000.375, -4500000.375, -3978258.0, -2840262.75, -2693056.6875, 4500000.0, 4500000.0, 4500000.0, 4500000.0, 4500000.0, -4500000.375, -4500000.375, -4500000.375, 0.010000000707805157, 0.9280000329017639, 0.3660000264644623, 192.0, 0.0, 0.0, 0.0, 0.0, 0.0, 0.0, 0.0, 0.0, 0.0, 1.6299356912851112E9, 2021-08-25 17:54:51.285
86.0, -2434964.25, -2853984.9375, -3398334.375, -4500000.375, -4500000.375, -3979602.375, -2825622.75, -2692528.6875, 4500000.0, 4500000.0, 4500000.0, 4500000.0, 4500000.0, -4500000.375, -4500000.375, -4500000.375, 0.02200000174343586, 0.9380000233650208, 0.37400001287460327, 192.0, 0.0, 88.0, 14.5, 40.0, 5.5, 88.0, 0.0, 0.0, 0.0, 1.6299356912851183E9, 2021-08-25 17:54:51.285
88.0, -2441145.75, -2861959.125, -3397220.625, -4500000.375, -4500000.375, -3978269.25, -2841795.9375, -2693015.8125, 4500000.0, 4500000.0, 4500000.0, 4500000.0, 4500000.0, -4500000.375, -4500000.375, -4500000.375, 0.02200000174343586, 0.9380000233650208, 0.37400001287460327, 192.0, 0.0, 0.0, 0.0, 0.0, 0.0, 0.0, 0.0, 0.0, 0.0, 1.6299356912851253E9, 2021-08-25 17:54:51.285
90.0, -2434741.6875, -2853423.75, -3398517.375, -4500000.375, -4500000.375, -3979633.5, -2824076.0625, -2692096.3125, 4500000.0, 4500000.0, 4500000.0, 4500000.0, 4500000.0, -4500000.375, -4500000.375, -4500000.375, 0.02200000174343586, 0.9380000233650208, 0.37400001287460327, 192.0, 0.0, 0.0, 0.0, 0.0, 0.0, 0.0, 0.0, 0.0, 0.0, 1.6299356912851324E9, 2021-08-25 17:54:51.285
92.0, -2441487.375, -2862458.4375, -3397229.25, -4500000.375, -4500000.375, -3978142.125, -2842698.75, -2693046.375, 4500000.0, 4500000.0, 4500000.0, 4500000.0, 4500000.0, -4500000.375, -4500000.375, -4500000.375, 0.02200000174343586, 0.9380000233650208, 0.37400001287460327, 192.0, 0.0, 0.0, 0.0, 0.0, 0.0, 0.0, 0.0, 0.0, 0.0, 1.6299356912851393E9, 2021-08-25 17:54:51.285
94.0, -2434772.8125, -2853373.3125, -3398782.875, -4500000.375, -4500000.375, -3979866.75, -2823686.625, -2692176.375, 4500000.0, 4500000.0, 4500000.0, 4500000.0, 4500000.0, -4500000.375, -4500000.375, -4500000.375, 0.02400000113993883, 0.9400000274181366, 0.37400001287460327, 192.0, 0.0, 104.0, 14.5, 56.0, 5.5, 88.0, 0.0, 0.0, 0.0, 1.6299356912851465E9, 2021-08-25 17:54:51.285
96.0, -2441074.875, -2862825.375, -3397019.25, -4500000.375, -4500000.375, -3977958.375, -2843247.0, -2692933.875, 4500000.0, 4500000.0, 4500000.0, 4500000.0, 4500000.0, -4500000.375, -4500000.375, -4500000.375, 0.02400000113993883, 0.9400000274181366, 0.37400001287460327, 192.0, 0.0, 0.0, 0.0, 0.0, 0.0, 0.0, 0.0, 0.0, 0.0, 1.6299356912851567E9, 2021-08-25 17:54:51.285
98.0, -2434364.4375, -2853086.4375, -3398135.25, -4500000.375, -4500000.375, -3979458.0, -2823353.0625, -2691694.6875, 4500000.0, 4500000.0, 4500000.0, 4500000.0, 4500000.0, -4500000.375, -4500000.375, -4500000.375, 0.02400000113993883, 0.9400000274181366, 0.37400001287460327, 192.0, 0.0, 0.0, 0.0, 0.0, 0.0, 0.0, 0.0, 0.0, 0.0, 1.6299356912851636E9, 2021-08-25 17:54:51.285
100.0, -2440795.3125, -2862777.75, -3397139.25, -4500000.375, -4500000.375, -3978259.125, -2843095.6875, -2693304.9375, 4500000.0, 4500000.0, 4500000.0, 4500000.0, 4500000.0, -4500000.375, -4500000.375, -4500000.375, 0.02400000113993883, 0.9400000274181366, 0.37400001287460327, 192.0, 0.0, 0.0, 0.0, 0.0, 0.0, 0.0, 0.0, 0.0, 0.0, 1.6299356912851706E9, 2021-08-25 17:54:51.285
102.0, -2434773.75, -2853349.125, -3397933.875, -4500000.375, -4500000.375, -3979163.625, -2823936.1875, -2691640.875, 4500000.0, 4500000.0, 4500000.0, 4500000.0, 4500000.0, -4500000.375, -4500000.375, -4500000.375, 0.02400000113993883, 0.9400000274181366, 0.37400001287460327, 192.0, 0.0, 0.0, 0.0, 0.0, 0.0, 0.0, 0.0, 0.0, 0.0, 1.6299356912851777E9, 2021-08-25 17:54:51.285
104.0, -2440345.875, -2862400.5, -3397135.5, -4500000.375, -4500000.375, -3978147.0, -2842107.0, -2693055.5625, 4500000.0, 4500000.0, 4500000.0, 4500000.0, 4500000.0, -4500000.375, -4500000.375, -4500000.375, 0.024000000674277544, 0.938000038266182, 0.37400001287460327, 192.0, 0.0, 96.0, 14.5, 32.0, 5.5, 88.0, 0.0, 0.0, 0.0, 1.6299356912851849E9, 2021-08-25 17:54:51.285
106.0, -2435548.5, -2854083.0, -3398080.875, -4500000.375, -4500000.375, -3979269.75, -2825229.375, -2691711.1875, 4500000.0, 4500000.0, 4500000.0, 4500000.0, 4500000.0, -4500000.375, -4500000.375, -4500000.375, 0.024000000674277544, 0.938000038266182, 0.37400001287460327, 192.0, 0.0, 0.0, 0.0, 0.0, 0.0, 0.0, 0.0, 0.0, 0.0, 1.6299356912851915E9, 2021-08-25 17:54:51.285
108.0, -2439723.0, -2861654.4375, -3397126.5, -4500000.375, -4500000.375, -3978210.375, -2840717.0625, -2693104.875, 4500000.0, 4500000.0, 4500000.0, 4500000.0, 4500000.0, -4500000.375, -4500000.375, -4500000.375, 0.024000000674277544, 0.938000038266182, 0.37400001287460327, 192.0, 0.0, 0.0, 0.0, 0.0, 0.0, 0.0, 0.0, 0.0, 0.0, 1.6299356912851987E9, 2021-08-25 17:54:51.285
110.0, -2436176.625, -2854880.25, -3397845.75, -4500000.375, -4500000.375, -3979186.125, -2826947.0625, -2691962.8125, 4500000.0, 4500000.0, 4500000.0, 4500000.0, 4500000.0, -4500000.375, -4500000.375, -4500000.375, 0.024000000674277544, 0.938000038266182, 0.37400001287460327, 192.0, 0.0, 0.0, 0.0, 0.0, 0.0, 0.0, 0.0, 0.0, 0.0, 1.6299356912852056E9, 2021-08-25 17:54:51.285
112.0, -2438879.8125, -2860807.3125, -3397408.5, -4500000.375, -4500000.375, -3978589.5, -2838812.625, -2693106.0, 4500000.0, 4500000.0, 4500000.0, 4500000.0, 4500000.0, -4500000.375, -4500000.375, -4500000.375, 0.024000000674277544, 0.938000038266182, 0.37400001287460327, 192.0, 0.0, 0.0, 0.0, 0.0, 0.0, 0.0, 0.0, 0.0, 0.0, 1.6299356912852268E9, 2021-08-25 17:54:51.285
114.0, -2436682.5, -2856162.9375, -3397911.75, -4500000.375, -4500000.375, -3979121.625, -2828710.5, -2691927.375, 4500000.0, 4500000.0, 4500000.0, 4500000.0, 4500000.0, -4500000.375, -4500000.375, -4500000.375, 0.020000000717118382, 0.9370000436902046, 0.3750000149011612, 192.0, 0.0, 64.0, 14.5, 32.0, 5.5, 96.0, 0.0, 0.0, 0.0, 1.6299356912852335E9, 2021-08-25 17:54:51.285
116.0, -2437953.375, -2859973.6875, -3397763.25, -4500000.375, -4500000.375, -3978666.75, -2836515.1875, -2692966.5, 4500000.0, 4500000.0, 4500000.0, 4500000.0, 4500000.0, -4500000.375, -4500000.375, -4500000.375, 0.020000000717118382, 0.9370000436902046, 0.3750000149011612, 192.0, 0.0, 0.0, 0.0, 0.0, 0.0, 0.0, 0.0, 0.0, 0.0, 1.6299356912852404E9, 2021-08-25 17:54:51.285
118.0, -2437674.9375, -2857526.4375, -3397742.625, -4500000.375, -4500000.375, -3978722.25, -2831550.375, -2692037.4375, 4500000.0, 4500000.0, 4500000.0, 4500000.0, 4500000.0, -4500000.375, -4500000.375, -4500000.375, 0.020000000717118382, 0.9370000436902046, 0.3750000149011612, 192.0, 0.0, 0.0, 0.0, 0.0, 0.0, 0.0, 0.0, 0.0, 0.0, 1.629935691285247E9, 2021-08-25 17:54:51.285
120.0, -2437160.4375, -2858453.4375, -3397591.5, -4500000.375, -4500000.375, -3978473.25, -2834103.75, -2692562.625, 4500000.0, 4500000.0, 4500000.0, 4500000.0, 4500000.0, -4500000.375, -4500000.375, -4500000.375, 0.020000000717118382, 0.9370000436902046, 0.3750000149011612, 192.0, 0.0, 0.0, 0.0, 0.0, 0.0, 0.0, 0.0, 0.0, 0.0, 1.629935691285254E9, 2021-08-25 17:54:51.285
122.0, -2438732.8125, -2858307.0, -3397428.375, -4500000.375, -4500000.375, -3978461.25, -2833800.1875, -2692063.125, 4500000.0, 4500000.0, 4500000.0, 4500000.0, 4500000.0, -4500000.375, -4500000.375, -4500000.375, 0.020000000717118382, 0.9370000436902046, 0.3750000149011612, 192.0, 0.0, 0.0, 0.0, 0.0, 0.0, 0.0, 0.0, 0.0, 0.0, 1.6299356917640116E9, 2021-08-25 17:54:51.764
124.0, -2436495.1875, -2857140.1875, -3397871.625, -4500000.375, -4500000.375, -3979014.0, -2831468.25, -2692520.8125, 4500000.0, 4500000.0, 4500000.0, 4500000.0, 4500000.0, -4500000.375, -4500000.375, -4500000.375, 0.01500000071246177, 0.9395000375807285, 0.3785000219941139, 192.0, 0.0, 40.0, 14.5, 56.0, 5.5, 120.0, 0.0, 0.0, 0.0, 1.6299356917641327E9, 2021-08-25 17:54:51.764
126.0, -2439636.75, -2859790.875, -3397628.625, -4500000.375, -4500000.375, -3978846.0, -2836454.0625, -2692603.3125, 4500000.0, 4500000.0, 4500000.0, 4500000.0, 4500000.0, -4500000.375, -4500000.375, -4500000.375, 0.01500000071246177, 0.9395000375807285, 0.3785000219941139, 192.0, 0.0, 0.0, 0.0, 0.0, 0.0, 0.0, 0.0, 0.0, 0.0, 1.6299356917641406E9, 2021-08-25 17:54:51.764
128.0, -2435692.6875, -2856244.875, -3398233.5, -4500000.375, -4500000.375, -3979345.125, -2829068.8125, -2692335.5625, 4500000.0, 4500000.0, 4500000.0, 4500000.0, 4500000.0, -4500000.375, -4500000.375, -4500000.375, 0.01500000071246177, 0.9395000375807285, 0.3785000219941139, 192.0, 0.0, 0.0, 0.0, 0.0, 0.0, 0.0, 0.0, 0.0, 0.0, 1.6299356917641485E9, 2021-08-25 17:54:51.764
130.0, -2440185.9375, -2860928.625, -3397483.5, -4500000.375, -4500000.375, -3978547.875, -2838679.125, -2692589.4375, 4500000.0, 4500000.0, 4500000.0, 4500000.0, 4500000.0, -4500000.375, -4500000.375, -4500000.375, 0.01500000071246177, 0.9395000375807285, 0.3785000219941139, 192.0, 0.0, 0.0, 0.0, 0.0, 0.0, 0.0, 0.0, 0.0, 0.0, 1.629935691764162E9, 2021-08-25 17:54:51.764
132.0, -2434986.1875, -2855138.8125, -3398472.375, -4500000.375, -4500000.375, -3979696.125, -2826970.125, -2692397.25, 4500000.0, 4500000.0, 4500000.0, 4500000.0, 4500000.0, -4500000.375, -4500000.375, -4500000.375, 0.01500000071246177, 0.9395000375807285, 0.3785000219941139, 192.0, 0.0, 0.0, 0.0, 0.0, 0.0, 0.0, 0.0, 0.0, 0.0, 1.6299356917641695E9, 2021-08-25 17:54:51.764
134.0, -2440438.6875, -2861608.875, -3397165.125, -4500000.375, -4500000.375, -3978430.875, -2840762.625, -2692784.625, 4500000.0, 4500000.0, 4500000.0, 4500000.0, 4500000.0, -4500000.375, -4500000.375, -4500000.375, 0.014500000572297722, 0.9387500304728746, 0.381250012665987, 192.0, 0.0, 56.0, 14.5, 40.0, 6.0, 0.0, 0.0, 0.0, 0.0, 1.6299356917641764E9, 2021-08-25 17:54:51.764
136.0, -2434485.75, -2854128.75, -3398435.25, -4500000.375, -4500000.375, -3979695.375, -2825374.875, -2692092.5625, 4500000.0, 4500000.0, 4500000.0, 4500000.0, 4500000.0, -4500000.375, -4500000.375, -4500000.375, 0.014500000572297722, 0.9387500304728746, 0.381250012665987, 192.0, 0.0, 0.0, 0.0, 0.0, 0.0, 0.0, 0.0, 0.0, 0.0, 1.6299356917641966E9, 2021-08-25 17:54:51.764
138.0, -2440973.4375, -2862306.1875, -3397043.625, -4500000.375, -4500000.375, -3978024.375, -2842201.5, -2692784.0625, 4500000.0, 4500000.0, 4500000.0, 4500000.0, 4500000.0, -4500000.375, -4500000.375, -4500000.375, 0.014500000572297722, 0.9387500304728746, 0.381250012665987, 192.0, 0.0, 0.0, 0.0, 0.0, 0.0, 0.0, 0.0, 0.0, 0.0, 1.6299356917642033E9, 2021-08-25 17:54:51.764
140.0, -2434651.5, -2853716.0625, -3398670.375, -4500000.375, -4500000.375, -3979827.75, -2824256.4375, -2692116.75, 4500000.0, 4500000.0, 4500000.0, 4500000.0, 4500000.0, -4500000.375, -4500000.375, -4500000.375, 0.014500000572297722, 0.9387500304728746, 0.381250012665987, 192.0, 0.0, 0.0, 0.0, 0.0, 0.0, 0.0, 0.0, 0.0, 0.0, 1.6299356917642107E9, 2021-08-25 17:54:51.764
142.0, -2441600.625, -2863146.75, -3397436.25, -4500000.375, -4500000.375, -3978292.5, -2843142.9375, -2693122.125, 4500000.0, 4500000.0, 4500000.0, 4500000.0, 4500000.0, -4500000.375, -4500000.375, -4500000.375, 0.014500000572297722, 0.9387500304728746, 0.381250012665987, 192.0, 0.0, 0.0, 0.0, 0.0, 0.0, 0.0, 0.0, 0.0, 0.0, 1.6299356917642179E9, 2021-08-25 17:54:51.764
144.0, -2434938.0, -2853613.6875, -3398559.375, -4500000.375, -4500000.375, -3979563.375, -2823275.8125, -2691974.0625, 4500000.0, 4500000.0, 4500000.0, 4500000.0, 4500000.0, -4500000.375, -4500000.375, -4500000.375, 0.020000001415610313, 0.9340000152587891, 0.3800000250339508, 192.0, 0.0, 80.0, 14.5, 24.0, 5.5, 112.0, 0.0, 0.0, 0.0, 1.6299356917642248E9, 2021-08-25 17:54:51.764
146.0, -2441391.375, -2863207.875, -3397291.125, -4500000.375, -4500000.375, -3978067.125, -2843133.1875, -2693203.6875, 4500000.0, 4500000.0, 4500000.0, 4500000.0, 4500000.0, -4500000.375, -4500000.375, -4500000.375, 0.020000001415610313, 0.9340000152587891, 0.3800000250339508, 192.0, 0.0, 0.0, 0.0, 0.0, 0.0, 0.0, 0.0, 0.0, 0.0, 1.6299356917642317E9, 2021-08-25 17:54:51.764
148.0, -2434736.8125, -2853558.9375, -3398503.875, -4500000.375, -4500000.375, -3979575.0, -2823701.625, -2691930.5625, 4500000.0, 4500000.0, 4500000.0, 4500000.0, 4500000.0, -4500000.375, -4500000.375, -4500000.375, 0.020000001415610313, 0.9340000152587891, 0.3800000250339508, 192.0, 0.0, 0.0, 0.0, 0.0, 0.0, 0.0, 0.0, 0.0, 0.0, 1.6299356917642384E9, 2021-08-25 17:54:51.764
150.0, -2440782.5625, -2863015.3125, -3397331.25, -4500000.375, -4500000.375, -3978241.875, -2842993.125, -2693252.4375, 4500000.0, 4500000.0, 4500000.0, 4500000.0, 4500000.0, -4500000.375, -4500000.375, -4500000.375, 0.020000001415610313, 0.9340000152587891, 0.3800000250339508, 192.0, 0.0, 0.0, 0.0, 0.0, 0.0, 0.0, 0.0, 0.0, 0.0, 1.6299356917642453E9, 2021-08-25 17:54:51.764
152.0, -2434973.4375, -2853813.75, -3398296.875, -4500000.375, -4500000.375, -3979480.125, -2824172.0625, -2691737.4375, 4500000.0, 4500000.0, 4500000.0, 4500000.0, 4500000.0, -4500000.375, -4500000.375, -4500000.375, 0.020000001415610313, 0.9340000152587891, 0.3800000250339508, 192.0, 0.0, 0.0, 0.0, 0.0, 0.0, 0.0, 0.0, 0.0, 0.0, 1.629935691764252E9, 2021-08-25 17:54:51.764
154.0, -2440422.5625, -2862467.0625, -3397483.5, -4500000.375, -4500000.375, -3978375.75, -2841870.9375, -2693240.0625, 4500000.0, 4500000.0, 4500000.0, 4500000.0, 4500000.0, -4500000.375, -4500000.375, -4500000.375, 0.02200000174343586, 0.9340000152587891, 0.3800000250339508, 192.0, 0.0, 88.0, 14.5, 24.0, 5.5, 112.0, 0.0, 0.0, 0.0, 1.6299356917642589E9, 2021-08-25 17:54:51.764
156.0, -2435853.75, -2854338.9375, -3398236.875, -4500000.375, -4500000.375, -3979236.75, -2825543.25, -2691753.0, 4500000.0, 4500000.0, 4500000.0, 4500000.0, 4500000.0, -4500000.375, -4500000.375, -4500000.375, 0.02200000174343586, 0.9340000152587891, 0.3800000250339508, 192.0, 0.0, 0.0, 0.0, 0.0, 0.0, 0.0, 0.0, 0.0, 0.0, 1.6299356917642655E9, 2021-08-25 17:54:51.764
158.0, -2440108.125, -2861702.625, -3397759.5, -4500000.375, -4500000.375, -3978461.25, -2840759.4375, -2693319.5625, 4500000.0, 4500000.0, 4500000.0, 4500000.0, 4500000.0, -4500000.375, -4500000.375, -4500000.375, 0.02200000174343586, 0.9340000152587891, 0.3800000250339508, 192.0, 0.0, 0.0, 0.0, 0.0, 0.0, 0.0, 0.0, 0.0, 0.0, 1.6299356917642744E9, 2021-08-25 17:54:51.764
160.0, -2436819.1875, -2855294.8125, -3398364.0, -4500000.375, -4500000.375, -3979268.625, -2827671.375, -2692156.5, 4500000.0, 4500000.0, 4500000.0, 4500000.0, 4500000.0, -4500000.375, -4500000.375, -4500000.375, 0.02200000174343586, 0.9340000152587891, 0.3800000250339508, 192.0, 0.0, 0.0, 0.0, 0.0, 0.0, 0.0, 0.0, 0.0, 0.0, 1.6299356917643013E9, 2021-08-25 17:54:51.764
162.0, -2439158.625, -2860614.75, -3397771.875, -4500000.375, -4500000.375, -3978432.375, -2838319.6875, -2693292.75, 4500000.0, 4500000.0, 4500000.0, 4500000.0, 4500000.0, -4500000.375, -4500000.375, -4500000.375, 0.02200000174343586, 0.9340000152587891, 0.3800000250339508, 192.0, 0.0, 0.0, 0.0, 0.0, 0.0, 0.0, 0.0, 0.0, 0.0, 1.629935691764308E9, 2021-08-25 17:54:51.764
164.0, -2437229.625, -2856205.3125, -3397857.375, -4500000.375, -4500000.375, -3978666.75, -2829066.1875, -2691921.5625, 4500000.0, 4500000.0, 4500000.0, 4500000.0, 4500000.0, -4500000.375, -4500000.375, -4500000.375, 0.02800000086426735, 0.940000057220459, 0.3840000033378601, 192.0, 0.0, 112.0, 14.5, 48.0, 6.0, 0.0, 0.0, 0.0, 0.0, 1.629935691764331E9, 2021-08-25 17:54:51.764
166.0, -2437954.3125, -2859530.625, -3397692.375, -4500000.375, -4500000.375, -3978318.75, -2835756.5625, -2692614.0, 4500000.0, 4500000.0, 4500000.0, 4500000.0, 4500000.0, -4500000.375, -4500000.375, -4500000.375, 0.02800000086426735, 0.940000057220459, 0.3840000033378601, 192.0, 0.0, 0.0, 0.0, 0.0, 0.0, 0.0, 0.0, 0.0, 0.0, 1.6299356917643378E9, 2021-08-25 17:54:51.764
168.0, -2437941.0, -2857386.9375, -3397709.625, -4500000.375, -4500000.375, -3978545.625, -2831546.625, -2691752.625, 4500000.0, 4500000.0, 4500000.0, 4500000.0, 4500000.0, -4500000.375, -4500000.375, -4500000.375, 0.02800000086426735, 0.940000057220459, 0.3840000033378601, 192.0, 0.0, 0.0, 0.0, 0.0, 0.0, 0.0, 0.0, 0.0, 0.0, 1.6299356917643447E9, 2021-08-25 17:54:51.764
170.0, -2437007.0625, -2858339.25, -3397872.0, -4500000.375, -4500000.375, -3978570.375, -2833064.8125, -2692392.5625, 4500000.0, 4500000.0, 4500000.0, 4500000.0, 4500000.0, -4500000.375, -4500000.375, -4500000.375, 0.02800000086426735, 0.940000057220459, 0.3840000033378601, 192.0, 0.0, 0.0, 0.0, 0.0, 0.0, 0.0, 0.0, 0.0, 0.0, 1.6299356917643516E9, 2021-08-25 17:54:51.764
172.0, -2439003.75, -2858879.4375, -3397776.375, -4500000.375, -4500000.375, -3978609.375, -2834232.5625, -2692092.5625, 4500000.0, 4500000.0, 4500000.0, 4500000.0, 4500000.0, -4500000.375, -4500000.375, -4500000.375, 0.02800000086426735, 0.940000057220459, 0.3840000033378601, 192.0, 0.0, 0.0, 0.0, 0.0, 0.0, 0.0, 0.0, 0.0, 0.0, 1.6299356917643583E9, 2021-08-25 17:54:51.764
174.0, -2436376.6875, -2857127.4375, -3397900.875, -4500000.375, -4500000.375, -3978810.0, -2830860.5625, -2692210.6875, 4500000.0, 4500000.0, 4500000.0, 4500000.0, 4500000.0, -4500000.375, -4500000.375, -4500000.375, 0.03200000151991844, 0.9340000152587891, 0.3880000114440918, 192.0, 0.5, 0.0, 14.5, 24.0, 6.0, 16.0, 0.0, 0.0, 0.0, 1.6299356917643652E9, 2021-08-25 17:54:51.764
176.0, -2439940.3125, -2859968.4375, -3397431.0, -4500000.375, -4500000.375, -3978310.5, -2836575.1875, -2692383.9375, 4500000.0, 4500000.0, 4500000.0, 4500000.0, 4500000.0, -4500000.375, -4500000.375, -4500000.375, 0.03200000151991844, 0.9340000152587891, 0.3880000114440918, 192.0, 0.0, 0.0, 0.0, 0.0, 0.0, 0.0, 0.0, 0.0, 0.0, 1.629935691764372E9, 2021-08-25 17:54:51.764
178.0, -2435997.0, -2855817.375, -3398068.5, -4500000.375, -4500000.375, -3978993.0, -2828370.9375, -2692381.3125, 4500000.0, 4500000.0, 4500000.0, 4500000.0, 4500000.0, -4500000.375, -4500000.375, -4500000.375, 0.03200000151991844, 0.9340000152587891, 0.3880000114440918, 192.0, 0.0, 0.0, 0.0, 0.0, 0.0, 0.0, 0.0, 0.0, 0.0, 1.6299356917643788E9, 2021-08-25 17:54:51.764
180.0, -2440669.3125, -2860843.875, -3397012.125, -4500000.375, -4500000.375, -3977984.625, -2839053.0, -2692605.5625, 4500000.0, 4500000.0, 4500000.0, 4500000.0, 4500000.0, -4500000.375, -4500000.375, -4500000.375, 0.03200000151991844, 0.9340000152587891, 0.3880000114440918, 192.0, 0.0, 0.0, 0.0, 0.0, 0.0, 0.0, 0.0, 0.0, 0.0, 1.6299356917643857E9, 2021-08-25 17:54:51.764
182.0, -2435255.625, -2854893.0, -3398199.375, -4500000.375, -4500000.375, -3979101.0, -2826432.1875, -2692211.25, 4500000.0, 4500000.0, 4500000.0, 4500000.0, 4500000.0, -4500000.375, -4500000.375, -4500000.375, 0.03400000184774399, 0.9380000233650208, 0.3930000215768814, 192.0, 0.5, 16.0, 14.5, 56.0, 6.0, 56.0, 0.0, 0.0, 0.0, 1.629935691764393E9, 2021-08-25 17:54:51.764
184.0, -2440896.1875, -2861987.625, -3397144.125, -4500000.375, -4500000.375, -3977856.375, -2840859.1875, -2692551.75, 4500000.0, 4500000.0, 4500000.0, 4500000.0, 4500000.0, -4500000.375, -4500000.375, -4500000.375, 0.03400000184774399, 0.9380000233650208, 0.3930000215768814, 192.0, 0.0, 0.0, 0.0, 0.0, 0.0, 0.0, 0.0, 0.0, 0.0, 1.6299356917644002E9, 2021-08-25 17:54:51.764
186.0, -2434483.6875, -2854360.3125, -3398489.625, -4500000.375, -4500000.375, -3979151.25, -2824862.0625, -2691565.3125, 4500000.0, 4500000.0, 4500000.0, 4500000.0, 4500000.0, -4500000.375, -4500000.375, -4500000.375, 0.03400000184774399, 0.9380000233650208, 0.3930000215768814, 192.0, 0.0, 0.0, 0.0, 0.0, 0.0, 0.0, 0.0, 0.0, 0.0, 1.629935691764407E9, 2021-08-25 17:54:51.764
188.0, -2440865.625, -2862660.75, -3397185.0, -4500000.375, -4500000.375, -3977537.25, -2841946.125, -2692216.5, 4500000.0, 4500000.0, 4500000.0, 4500000.0, 4500000.0, -4500000.375, -4500000.375, -4500000.375, 0.03400000184774399, 0.9380000233650208, 0.3930000215768814, 192.0, 0.0, 0.0, 0.0, 0.0, 0.0, 0.0, 0.0, 0.0, 0.0, 1.629935691764414E9, 2021-08-25 17:54:51.764
190.0, -2434356.5625, -2853793.3125, -3398544.0, -4500000.375, -4500000.375, -3979090.125, -2823421.6875, -2691558.9375, 4500000.0, 4500000.0, 4500000.0, 4500000.0, 4500000.0, -4500000.375, -4500000.375, -4500000.375, 0.03400000184774399, 0.9380000233650208, 0.3930000215768814, 192.0, 0.0, 0.0, 0.0, 0.0, 0.0, 0.0, 0.0, 0.0, 0.0, 1.6299356917644207E9, 2021-08-25 17:54:51.764
192.0, -2441328.5625, -2863000.3125, -3397140.75, -4500000.375, -4500000.375, -3977644.5, -2842680.0, -2692932.75, 4500000.0, 4500000.0, 4500000.0, 4500000.0, 4500000.0, -4500000.375, -4500000.375, -4500000.375, 0.039000002667307854, 0.937000036239624, 0.3955000266432762, 192.0, 0.5, 48.0, 14.5, 32.0, 6.0, 56.0, 0.0, 0.0, 0.0, 1.6299356917644277E9, 2021-08-25 17:54:51.764
194.0, -2434661.625, -2853278.4375, -3398202.375, -4500000.375, -4500000.375, -3979033.875, -2822874.9375, -2691955.3125, 4500000.0, 4500000.0, 4500000.0, 4500000.0, 4500000.0, -4500000.375, -4500000.375, -4500000.375, 0.039000002667307854, 0.937000036239624, 0.3955000266432762, 192.0, 0.0, 0.0, 0.0, 0.0, 0.0, 0.0, 0.0, 0.0, 0.0, 1.6299356917644343E9, 2021-08-25 17:54:51.764
196.0, -2441279.25, -2863000.3125, -3396979.875, -4500000.375, -4500000.375, -3977649.75, -2842741.125, -2693408.625, 4500000.0, 4500000.0, 4500000.0, 4500000.0, 4500000.0, -4500000.375, -4500000.375, -4500000.375, 0.039000002667307854, 0.937000036239624, 0.3955000266432762, 192.0, 0.0, 0.0, 0.0, 0.0, 0.0, 0.0, 0.0, 0.0, 0.0, 1.6299356917644415E9, 2021-08-25 17:54:51.764
198.0, -2434885.5, -2853337.875, -3398034.0, -4500000.375, -4500000.375, -3978742.125, -2823150.75, -2691726.1875, 4500000.0, 4500000.0, 4500000.0, 4500000.0, 4500000.0, -4500000.375, -4500000.375, -4500000.375, 0.039000002667307854, 0.937000036239624, 0.3955000266432762, 192.0, 0.0, 0.0, 0.0, 0.0, 0.0, 0.0, 0.0, 0.0, 0.0, 1.62993569176445E9, 2021-08-25 17:54:51.764
200.0, -2440763.25, -2862764.25, -3397057.125, -4500000.375, -4500000.375, -3977357.25, -2842464.1875, -2692844.25, 4500000.0, 4500000.0, 4500000.0, 4500000.0, 4500000.0, -4500000.375, -4500000.375, -4500000.375, 0.039000002667307854, 0.937000036239624, 0.3955000266432762, 192.0, 0.0, 0.0, 0.0, 0.0, 0.0, 0.0, 0.0, 0.0, 0.0, 1.6299356917644567E9, 2021-08-25 17:54:51.764
202.0, -2435139.1875, -2854208.625, -3398117.625, -4500000.375, -4500000.375, -3978630.375, -2824121.25, -2691320.25, 4500000.0, 4500000.0, 4500000.0, 4500000.0, 4500000.0, -4500000.375, -4500000.375, -4500000.375, 0.041500003077089787, 0.932500034570694, 0.39775001630187035, 192.0, 0.5, 48.0, 14.5, 0.0, 6.0, 64.0, 0.0, 0.0, 0.0, 1.6299356917644637E9, 2021-08-25 17:54:51.764
204.0, -2440151.625, -2862493.3125, -3397164.375, -4500000.375, -4500000.375, -3977543.625, -2841539.4375, -2692653.75, 4500000.0, 4500000.0, 4500000.0, 4500000.0, 4500000.0, -4500000.375, -4500000.375, -4500000.375, 0.041500003077089787, 0.932500034570694, 0.39775001630187035, 192.0, 0.0, 0.0, 0.0, 0.0, 0.0, 0.0, 0.0, 0.0, 0.0, 1.6299356917644703E9, 2021-08-25 17:54:51.764
206.0, -2435795.8125, -2854824.9375, -3398137.125, -4500000.375, -4500000.375, -3978588.0, -2825566.3125, -2691370.125, 4500000.0, 4500000.0, 4500000.0, 4500000.0, 4500000.0, -4500000.375, -4500000.375, -4500000.375, 0.041500003077089787, 0.932500034570694, 0.39775001630187035, 192.0, 0.0, 0.0, 0.0, 0.0, 0.0, 0.0, 0.0, 0.0, 0.0, 1.6299356917644773E9, 2021-08-25 17:54:51.764
208.0, -2439482.625, -2861647.875, -3397350.0, -4500000.375, -4500000.375, -3977536.125, -2839710.1875, -2692694.4375, 4500000.0, 4500000.0, 4500000.0, 4500000.0, 4500000.0, -4500000.375, -4500000.375, -4500000.375, 0.041500003077089787, 0.932500034570694, 0.39775001630187035, 192.0, 0.0, 0.0, 0.0, 0.0, 0.0, 0.0, 0.0, 0.0, 0.0, 1.629935691764484E9, 2021-08-25 17:54:51.764
210.0, -2436634.6875, -2855578.125, -3398140.875, -4500000.375, -4500000.375, -3978580.5, -2827195.5, -2691659.8125, 4500000.0, 4500000.0, 4500000.0, 4500000.0, 4500000.0, -4500000.375, -4500000.375, -4500000.375, 0.041500003077089787, 0.932500034570694, 0.39775001630187035, 192.0, 0.0, 0.0, 0.0, 0.0, 0.0, 0.0, 0.0, 0.0, 0.0, 1.6299356917644925E9, 2021-08-25 17:54:51.764
212.0, -2439096.5625, -2860687.6875, -3397890.75, -4500000.375, -4500000.375, -3978140.25, -2837784.375, -2693176.875, 4500000.0, 4500000.0, 4500000.0, 4500000.0, 4500000.0, -4500000.375, -4500000.375, -4500000.375, 0.04475000174716115, 0.9312500506639481, 0.3978750240057707, 192.0, 0.5, 64.0, 14.5, 8.0, 6.0, 56.0, 0.0, 0.0, 0.0, 1.6299356917644992E9, 2021-08-25 17:54:51.764
214.0, -2437755.375, -2856564.1875, -3397686.0, -4500000.375, -4500000.375, -3978125.625, -2829464.625, -2691957.0, 4500000.0, 4500000.0, 4500000.0, 4500000.0, 4500000.0, -4500000.375, -4500000.375, -4500000.375, 0.04475000174716115, 0.9312500506639481, 0.3978750240057707, 192.0, 0.0, 0.0, 0.0, 0.0, 0.0, 0.0, 0.0, 0.0, 0.0, 1.629935691764506E9, 2021-08-25 17:54:51.764
216.0, -2438032.6875, -2859112.6875, -3397283.625, -4500000.375, -4500000.375, -3977614.875, -2834726.0625, -2692666.125, 4500000.0, 4500000.0, 4500000.0, 4500000.0, 4500000.0, -4500000.375, -4500000.375, -4500000.375, 0.04475000174716115, 0.9312500506639481, 0.3978750240057707, 192.0, 0.0, 0.0, 0.0, 0.0, 0.0, 0.0, 0.0, 0.0, 0.0, 1.6299356917645128E9, 2021-08-25 17:54:51.764
218.0, -2438437.6875, -2857718.0625, -3397384.875, -4500000.375, -4500000.375, -3977881.875, -2831691.9375, -2691990.1875, 4500000.0, 4500000.0, 4500000.0, 4500000.0, 4500000.0, -4500000.375, -4500000.375, -4500000.375, 0.04475000174716115, 0.9312500506639481, 0.3978750240057707, 192.0, 0.0, 0.0, 0.0, 0.0, 0.0, 0.0, 0.0, 0.0, 0.0, 1.6299356917645197E9, 2021-08-25 17:54:51.764
220.0, -2437215.1875, -2858138.0625, -3397701.375, -4500000.375, -4500000.375, -3978114.375, -2832880.6875, -2692610.8125, 4500000.0, 4500000.0, 4500000.0, 4500000.0, 4500000.0, -4500000.375, -4500000.375, -4500000.375, 0.04475000174716115, 0.9312500506639481, 0.3978750240057707, 192.0, 0.0, 0.0, 0.0, 0.0, 0.0, 0.0, 0.0, 0.0, 0.0, 1.6299356917645264E9, 2021-08-25 17:54:51.764
222.0, -2439371.625, -2859121.3125, -3397568.25, -4500000.375, -4500000.375, -3978011.25, -2834622.0, -2692212.75, 4500000.0, 4500000.0, 4500000.0, 4500000.0, 4500000.0, -4500000.375, -4500000.375, -4500000.375, 0.04537500278092921, 0.929625041782856, 0.39693752583116293, 192.0, 0.5, 56.0, 14.5, 0.0, 6.0, 48.0, 0.0, 0.0, 0.0, 1.6299356917645333E9, 2021-08-25 17:54:51.764
224.0, -2436626.625, -2857060.875, -3398176.125, -4500000.375, -4500000.375, -3978630.75, -2830290.75, -2692533.5625, 4500000.0, 4500000.0, 4500000.0, 4500000.0, 4500000.0, -4500000.375, -4500000.375, -4500000.375, 0.04537500278092921, 0.929625041782856, 0.39693752583116293, 192.0, 0.0, 0.0, 0.0, 0.0, 0.0, 0.0, 0.0, 0.0, 0.0, 1.6299356917645402E9, 2021-08-25 17:54:51.764
226.0, -2440445.0625, -2860261.3125, -3397352.625, -4500000.375, -4500000.375, -3977787.75, -2837160.9375, -2692448.25, 4500000.0, 4500000.0, 4500000.0, 4500000.0, 4500000.0, -4500000.375, -4500000.375, -4500000.375, 0.04537500278092921, 0.929625041782856, 0.39693752583116293, 192.0, 0.0, 0.0, 0.0, 0.0, 0.0, 0.0, 0.0, 0.0, 0.0, 1.629935691764547E9, 2021-08-25 17:54:51.764
228.0, -2436117.5625, -2856003.0, -3398235.75, -4500000.375, -4500000.375, -3978729.75, -2828211.0, -2692567.875, 4500000.0, 4500000.0, 4500000.0, 4500000.0, 4500000.0, -4500000.375, -4500000.375, -4500000.375, 0.04537500278092921, 0.929625041782856, 0.39693752583116293, 192.0, 0.0, 0.0, 0.0, 0.0, 0.0, 0.0, 0.0, 0.0, 0.0, 1.6299356917645538E9, 2021-08-25 17:54:51.764
230.0, -2441129.0625, -2861476.3125, -3397314.0, -4500000.375, -4500000.375, -3977835.75, -2839681.6875, -2692919.8125, 4500000.0, 4500000.0, 4500000.0, 4500000.0, 4500000.0, -4500000.375, -4500000.375, -4500000.375, 0.04537500278092921, 0.929625041782856, 0.39693752583116293, 192.0, 0.0, 0.0, 0.0, 0.0, 0.0, 0.0, 0.0, 0.0, 0.0, 1.6299356917645607E9, 2021-08-25 17:54:51.764
232.0, -2435518.875, -2854961.8125, -3398292.0, -4500000.375, -4500000.375, -3978930.375, -2826234.75, -2692354.875, 4500000.0, 4500000.0, 4500000.0, 4500000.0, 4500000.0, -4500000.375, -4500000.375, -4500000.375, 0.052000001072883606, 0.9240000247955322, 0.4020000100135803, 192.0, 0.5, 80.0, 14.0, 112.0, 6.0, 72.0, 0.0, 0.0, 0.0, 1.6299356917645693E9, 2021-08-25 17:54:51.764
234.0, -2441577.5625, -2862174.75, -3397174.125, -4500000.375, -4500000.375, -3977627.625, -2841333.9375, -2692924.6875, 4500000.0, 4500000.0, 4500000.0, 4500000.0, 4500000.0, -4500000.375, -4500000.375, -4500000.375, 0.052000001072883606, 0.9240000247955322, 0.4020000100135803, 192.0, 0.0, 0.0, 0.0, 0.0, 0.0, 0.0, 0.0, 0.0, 0.0, 1.629935691764576E9, 2021-08-25 17:54:51.764
236.0, -2435281.875, -2854109.4375, -3398269.875, -4500000.375, -4500000.375, -3978800.625, -2824443.0, -2691985.875, 4500000.0, 4500000.0, 4500000.0, 4500000.0, 4500000.0, -4500000.375, -4500000.375, -4500000.375, 0.052000001072883606, 0.9240000247955322, 0.4020000100135803, 192.0, 0.0, 0.0, 0.0, 0.0, 0.0, 0.0, 0.0, 0.0, 0.0, 1.6299356917646017E9, 2021-08-25 17:54:51.764
238.0, -2441964.375, -2862618.375, -3396990.0, -4500000.375, -4500000.375, -3977409.375, -2842171.875, -2692819.5, 4500000.0, 4500000.0, 4500000.0, 4500000.0, 4500000.0, -4500000.375, -4500000.375, -4500000.375, 0.052000001072883606, 0.9240000247955322, 0.4020000100135803, 192.0, 0.0, 0.0, 0.0, 0.0, 0.0, 0.0, 0.0, 0.0, 0.0, 1.629935691764611E9, 2021-08-25 17:54:51.764
240.0, -2435051.25, -2853538.5, -3398062.5, -4500000.375, -4500000.375, -3978602.625, -2823010.125, -2691726.1875, 4500000.0, 4500000.0, 4500000.0, 4500000.0, 4500000.0, -4500000.375, -4500000.375, -4500000.375, 0.052000001072883606, 0.9240000247955322, 0.4020000100135803, 192.0, 0.0, 0.0, 0.0, 0.0, 0.0, 0.0, 0.0, 0.0, 0.0, 1.6299356917646196E9, 2021-08-25 17:54:51.764
242.0, -2441777.0625, -2862838.875, -3396861.0, -4500000.375, -4500000.375, -3977310.75, -2842608.0, -2693110.875, 4500000.0, 4500000.0, 4500000.0, 4500000.0, 4500000.0, -4500000.375, -4500000.375, -4500000.375, 0.04800000041723251, 0.9240000247955322, 0.4000000059604645, 192.0, 0.5, 64.0, 14.0, 112.0, 6.0, 64.0, 0.0, 0.0, 0.0, 1.629935692244845E9, 2021-08-25 17:54:52.244
244.0, -2434905.1875, -2853255.375, -3397951.875, -4500000.375, -4500000.375, -3978621.75, -2822626.125, -2691676.3125, 4500000.0, 4500000.0, 4500000.0, 4500000.0, 4500000.0, -4500000.375, -4500000.375, -4500000.375, 0.04800000041723251, 0.9240000247955322, 0.4000000059604645, 192.0, 0.0, 0.0, 0.0, 0.0, 0.0, 0.0, 0.0, 0.0, 0.0, 1.6299356922450457E9, 2021-08-25 17:54:52.245
246.0, -2441457.9375, -2862904.875, -3397041.75, -4500000.375, -4500000.375, -3977502.375, -2842831.125, -2693111.4375, 4500000.0, 4500000.0, 4500000.0, 4500000.0, 4500000.0, -4500000.375, -4500000.375, -4500000.375, 0.04800000041723251, 0.9240000247955322, 0.4000000059604645, 192.0, 0.0, 0.0, 0.0, 0.0, 0.0, 0.0, 0.0, 0.0, 0.0, 1.6299356922450533E9, 2021-08-25 17:54:52.245
248.0, -2435305.5, -2853853.5, -3398386.5, -4500000.375, -4500000.375, -3979046.25, -2823409.875, -2691802.5, 4500000.0, 4500000.0, 4500000.0, 4500000.0, 4500000.0, -4500000.375, -4500000.375, -4500000.375, 0.04800000041723251, 0.9240000247955322, 0.4000000059604645, 192.0, 0.0, 0.0, 0.0, 0.0, 0.0, 0.0, 0.0, 0.0, 0.0, 1.6299356922450755E9, 2021-08-25 17:54:52.245
250.0, -2441192.4375, -2862857.0625, -3397230.375, -4500000.375, -4500000.375, -3977616.375, -2842383.1875, -2693258.25, 4500000.0, 4500000.0, 4500000.0, 4500000.0, 4500000.0, -4500000.375, -4500000.375, -4500000.375, 0.04800000041723251, 0.9240000247955322, 0.4000000059604645, 192.0, 0.0, 0.0, 0.0, 0.0, 0.0, 0.0, 0.0, 0.0, 0.0, 1.629935692245083E9, 2021-08-25 17:54:52.245
252.0, -2436016.3125, -2854427.4375, -3398456.625, -4500000.375, -4500000.375, -3979128.75, -2824642.6875, -2692079.8125, 4500000.0, 4500000.0, 4500000.0, 4500000.0, 4500000.0, -4500000.375, -4500000.375, -4500000.375, 0.05400000140070915, 0.9280000329017639, 0.3920000195503235, 192.0, 0.5, 88.0, 14.5, 0.0, 6.0, 32.0, 0.0, 0.0, 0.0, 1.6299356922450895E9, 2021-08-25 17:54:52.245
254.0, -2440420.875, -2862095.8125, -3396938.25, -4500000.375, -4500000.375, -3977275.5, -2840956.875, -2692847.4375, 4500000.0, 4500000.0, 4500000.0, 4500000.0, 4500000.0, -4500000.375, -4500000.375, -4500000.375, 0.05400000140070915, 0.9280000329017639, 0.3920000195503235, 192.0, 0.0, 0.0, 0.0, 0.0, 0.0, 0.0, 0.0, 0.0, 0.0, 1.6299356922450964E9, 2021-08-25 17:54:52.245
0.0, -2436185.25, -2854312.6875, -3397558.125, -4500000.375, -4500000.375, -3978180.75, -2825415.5625, -2691326.0625, 4500000.0, 4500000.0, 4500000.0, 4500000.0, 4500000.0, -4500000.375, -4500000.375, -4500000.375, 0.05400000140070915, 0.9280000329017639, 0.3920000195503235, 192.0, 0.0, 0.0, 0.0, 0.0, 0.0, 0.0, 0.0, 0.0, 0.0, 1.629935692245103E9, 2021-08-25 17:54:52.245
2.0, -2439922.125, -2861022.5625, -3397192.875, -4500000.375, -4500000.375, -3977699.625, -2839311.0, -2693006.25, 4500000.0, 4500000.0, 4500000.0, 4500000.0, 4500000.0, -4500000.375, -4500000.375, -4500000.375, 0.05400000140070915, 0.9280000329017639, 0.3920000195503235, 192.0, 0.0, 0.0, 0.0, 0.0, 0.0, 0.0, 0.0, 0.0, 0.0, 1.6299356922451096E9, 2021-08-25 17:54:52.245
4.0, -2437355.8125, -2855370.0, -3397754.625, -4500000.375, -4500000.375, -3978430.875, -2827678.3125, -2691966.0, 4500000.0, 4500000.0, 4500000.0, 4500000.0, 4500000.0, -4500000.375, -4500000.375, -4500000.375, 0.05400000140070915, 0.9280000329017639, 0.3920000195503235, 192.0, 0.0, 0.0, 0.0, 0.0, 0.0, 0.0, 0.0, 0.0, 0.0, 1.6299356922451162E9, 2021-08-25 17:54:52.245
6.0, -2439189.75, -2860059.0, -3397420.875, -4500000.375, -4500000.375, -3977757.0, -2837168.0625, -2693067.9375, 4500000.0, 4500000.0, 4500000.0, 4500000.0, 4500000.0, -4500000.375, -4500000.375, -4500000.375, 0.05000000074505806, 0.9320000410079956, 0.3880000114440918, 192.0, 0.5, 72.0, 14.5, 16.0, 6.0, 16.0, 0.0, 0.0, 0.0, 1.629935692245123E9, 2021-08-25 17:54:52.245
8.0, -2438056.875, -2856358.125, -3397481.625, -4500000.375, -4500000.375, -3977904.0, -2829655.6875, -2691871.6875, 4500000.0, 4500000.0, 4500000.0, 4500000.0, 4500000.0, -4500000.375, -4500000.375, -4500000.375, 0.05000000074505806, 0.9320000410079956, 0.3880000114440918, 192.0, 0.0, 0.0, 0.0, 0.0, 0.0, 0.0, 0.0, 0.0, 0.0, 1.6299356922451296E9, 2021-08-25 17:54:52.245
10.0, -2438332.125, -2858974.3125, -3397733.25, -4500000.375, -4500000.375, -3978088.5, -2834846.8125, -2692929.5625, 4500000.0, 4500000.0, 4500000.0, 4500000.0, 4500000.0, -4500000.375, -4500000.375, -4500000.375, 0.05000000074505806, 0.9320000410079956, 0.3880000114440918, 192.0, 0.0, 0.0, 0.0, 0.0, 0.0, 0.0, 0.0, 0.0, 0.0, 1.629935692245144E9, 2021-08-25 17:54:52.245
12.0, -2438902.875, -2857598.4375, -3397380.0, -4500000.375, -4500000.375, -3977860.125, -2832331.5, -2692164.0, 4500000.0, 4500000.0, 4500000.0, 4500000.0, 4500000.0, -4500000.375, -4500000.375, -4500000.375, 0.05000000074505806, 0.9320000410079956, 0.3880000114440918, 192.0, 0.0, 0.0, 0.0, 0.0, 0.0, 0.0, 0.0, 0.0, 0.0, 1.6299356922451508E9, 2021-08-25 17:54:52.245
14.0, -2437518.1875, -2857787.25, -3397870.875, -4500000.375, -4500000.375, -3978327.375, -2832234.9375, -2692957.875, 4500000.0, 4500000.0, 4500000.0, 4500000.0, 4500000.0, -4500000.375, -4500000.375, -4500000.375, 0.05000000074505806, 0.9320000410079956, 0.3880000114440918, 192.0, 0.0, 0.0, 0.0, 0.0, 0.0, 0.0, 0.0, 0.0, 0.0, 1.6299356922451572E9, 2021-08-25 17:54:52.245
16.0, -2439872.25, -2858862.1875, -3397257.375, -4500000.375, -4500000.375, -3977854.125, -2835112.3125, -2692511.625, 4500000.0, 4500000.0, 4500000.0, 4500000.0, 4500000.0, -4500000.375, -4500000.375, -4500000.375, 0.04800000041723251, 0.9380000233650208, 0.38600000739097595, 192.0, 0.5, 64.0, 14.5, 40.0, 6.0, 8.0, 0.0, 0.0, 0.0, 1.629935692245164E9, 2021-08-25 17:54:52.245
18.0, -2436764.0625, -2856318.9375, -3397720.875, -4500000.375, -4500000.375, -3978183.0, -2829850.3125, -2692636.125, 4500000.0, 4500000.0, 4500000.0, 4500000.0, 4500000.0, -4500000.375, -4500000.375, -4500000.375, 0.04800000041723251, 0.9380000233650208, 0.38600000739097595, 192.0, 0.0, 0.0, 0.0, 0.0, 0.0, 0.0, 0.0, 0.0, 0.0, 1.6299356922451706E9, 2021-08-25 17:54:52.245
20.0, -2440767.0, -2859877.125, -3397051.875, -4500000.375, -4500000.375, -3977403.375, -2837246.8125, -2692520.8125, 4500000.0, 4500000.0, 4500000.0, 4500000.0, 4500000.0, -4500000.375, -4500000.375, -4500000.375, 0.04800000041723251, 0.9380000233650208, 0.38600000739097595, 192.0, 0.0, 0.0, 0.0, 0.0, 0.0, 0.0, 0.0, 0.0, 0.0, 1.6299356922451773E9, 2021-08-25 17:54:52.245
22.0, -2436410.0625, -2855228.4375, -3398207.25, -4500000.375, -4500000.375, -3978761.25, -2827515.1875, -2692653.75, 4500000.0, 4500000.0, 4500000.0, 4500000.0, 4500000.0, -4500000.375, -4500000.375, -4500000.375, 0.04800000041723251, 0.9380000233650208, 0.38600000739097595, 192.0, 0.0, 0.0, 0.0, 0.0, 0.0, 0.0, 0.0, 0.0, 0.0, 1.629935692245184E9, 2021-08-25 17:54:52.245
24.0, -2441270.0625, -2860823.4375, -3396972.0, -4500000.375, -4500000.375, -3977444.25, -2839630.3125, -2692586.625, 4500000.0, 4500000.0, 4500000.0, 4500000.0, 4500000.0, -4500000.375, -4500000.375, -4500000.375, 0.04900000058114529, 0.9390000402927399, 0.39000001549720764, 192.0, 0.5, 72.0, 14.5, 48.0, 6.0, 40.0, 0.0, 0.0, 0.0, 1.6299356922451904E9, 2021-08-25 17:54:52.245
26.0, -2435505.0, -2854458.0, -3398274.375, -4500000.375, -4500000.375, -3978898.125, -2825639.25, -2692221.9375, 4500000.0, 4500000.0, 4500000.0, 4500000.0, 4500000.0, -4500000.375, -4500000.375, -4500000.375, 0.04900000058114529, 0.9390000402927399, 0.39000001549720764, 192.0, 0.0, 0.0, 0.0, 0.0, 0.0, 0.0, 0.0, 0.0, 0.0, 1.6299356922451973E9, 2021-08-25 17:54:52.245
28.0, -2441619.9375, -2862118.875, -3397072.875, -4500000.375, -4500000.375, -3977706.75, -2841581.8125, -2693057.25, 4500000.0, 4500000.0, 4500000.0, 4500000.0, 4500000.0, -4500000.375, -4500000.375, -4500000.375, 0.04900000058114529, 0.9390000402927399, 0.39000001549720764, 192.0, 0.0, 0.0, 0.0, 0.0, 0.0, 0.0, 0.0, 0.0, 0.0, 1.6299356922452037E9, 2021-08-25 17:54:52.245
30.0, -2435214.1875, -2853847.5, -3398269.125, -4500000.375, -4500000.375, -3978944.25, -2824270.875, -2692299.1875, 4500000.0, 4500000.0, 4500000.0, 4500000.0, 4500000.0, -4500000.375, -4500000.375, -4500000.375, 0.04900000058114529, 0.9390000402927399, 0.39000001549720764, 192.0, 0.0, 0.0, 0.0, 0.0, 0.0, 0.0, 0.0, 0.0, 0.0, 1.6299356922452104E9, 2021-08-25 17:54:52.245
32.0, -2441947.6875, -2862411.375, -3396793.125, -4500000.375, -4500000.375, -3977176.125, -2842341.375, -2693073.1875, 4500000.0, 4500000.0, 4500000.0, 4500000.0, 4500000.0, -4500000.375, -4500000.375, -4500000.375, 0.04900000058114529, 0.9390000402927399, 0.39000001549720764, 192.0, 0.0, 0.0, 0.0, 0.0, 0.0, 0.0, 0.0, 0.0, 0.0, 1.629935692245217E9, 2021-08-25 17:54:52.245
34.0, -2435322.5625, -2853070.3125, -3397939.125, -4500000.375, -4500000.375, -3978559.5, -2823006.9375, -2691928.5, 4500000.0, 4500000.0, 4500000.0, 4500000.0, 4500000.0, -4500000.375, -4500000.375, -4500000.375, 0.04950000066310167, 0.9395000487565994, 0.3920000195503235, 192.0, 0.5, 72.0, 14.5, 48.0, 6.0, 40.0, 0.0, 0.0, 0.0, 1.6299356922452235E9, 2021-08-25 17:54:52.245
36.0, -2442158.4375, -2862427.875, -3396621.75, -4500000.375, -4500000.375, -3977170.125, -2842842.375, -2693263.6875, 4500000.0, 4500000.0, 4500000.0, 4500000.0, 4500000.0, -4500000.375, -4500000.375, -4500000.375, 0.04950000066310167, 0.9395000487565994, 0.3920000195503235, 192.0, 0.0, 0.0, 0.0, 0.0, 0.0, 0.0, 0.0, 0.0, 0.0, 1.629935692245231E9, 2021-08-25 17:54:52.245
38.0, -2435367.75, -2853015.0, -3397900.5, -4500000.375, -4500000.375, -3978559.5, -2823016.6875, -2692015.875, 4500000.0, 4500000.0, 4500000.0, 4500000.0, 4500000.0, -4500000.375, -4500000.375, -4500000.375, 0.04950000066310167, 0.9395000487565994, 0.3920000195503235, 192.0, 0.0, 0.0, 0.0, 0.0, 0.0, 0.0, 0.0, 0.0, 0.0, 1.6299356922452374E9, 2021-08-25 17:54:52.245
40.0, -2441577.5625, -2862595.3125, -3396777.0, -4500000.375, -4500000.375, -3977349.75, -2843023.3125, -2693324.8125, 4500000.0, 4500000.0, 4500000.0, 4500000.0, 4500000.0, -4500000.375, -4500000.375, -4500000.375, 0.04950000066310167, 0.9395000487565994, 0.3920000195503235, 192.0, 0.0, 0.0, 0.0, 0.0, 0.0, 0.0, 0.0, 0.0, 0.0, 1.629935692245244E9, 2021-08-25 17:54:52.245
42.0, -2435130.5625, -2853024.75, -3397614.375, -4500000.375, -4500000.375, -3978442.125, -2823568.125, -2691602.25, 4500000.0, 4500000.0, 4500000.0, 4500000.0, 4500000.0, -4500000.375, -4500000.375, -4500000.375, 0.04950000066310167, 0.9395000487565994, 0.3920000195503235, 192.0, 0.0, 0.0, 0.0, 0.0, 0.0, 0.0, 0.0, 0.0, 0.0, 1.6299356922452507E9, 2021-08-25 17:54:52.245
44.0, -2440917.75, -2861913.5625, -3396682.875, -4500000.375, -4500000.375, -3977263.5, -2842250.25, -2693012.0625, 4500000.0, 4500000.0, 4500000.0, 4500000.0, 4500000.0, -4500000.375, -4500000.375, -4500000.375, 0.04875000054016709, 0.9377500489354134, 0.39500002562999725, 192.0, 0.5, 64.0, 14.5, 32.0, 6.0, 56.0, 0.0, 0.0, 0.0, 1.6299356922452593E9, 2021-08-25 17:54:52.245
46.0, -2435913.1875, -2853842.25, -3398085.0, -4500000.375, -4500000.375, -3978788.25, -2824713.375, -2691844.875, 4500000.0, 4500000.0, 4500000.0, 4500000.0, 4500000.0, -4500000.375, -4500000.375, -4500000.375, 0.04875000054016709, 0.9377500489354134, 0.39500002562999725, 192.0, 0.0, 0.0, 0.0, 0.0, 0.0, 0.0, 0.0, 0.0, 0.0, 1.629935692245266E9, 2021-08-25 17:54:52.245
48.0, -2440650.5625, -2861670.0, -3397285.5, -4500000.375, -4500000.375, -3977715.75, -2841043.3125, -2693453.625, 4500000.0, 4500000.0, 4500000.0, 4500000.0, 4500000.0, -4500000.375, -4500000.375, -4500000.375, 0.04875000054016709, 0.9377500489354134, 0.39500002562999725, 192.0, 0.0, 0.0, 0.0, 0.0, 0.0, 0.0, 0.0, 0.0, 0.0, 1.6299356922452726E9, 2021-08-25 17:54:52.245
50.0, -2436761.4375, -2854389.9375, -3397914.0, -4500000.375, -4500000.375, -3978484.875, -2826039.5625, -2692048.125, 4500000.0, 4500000.0, 4500000.0, 4500000.0, 4500000.0, -4500000.375, -4500000.375, -4500000.375, 0.04875000054016709, 0.9377500489354134, 0.39500002562999725, 192.0, 0.0, 0.0, 0.0, 0.0, 0.0, 0.0, 0.0, 0.0, 0.0, 1.6299356922452793E9, 2021-08-25 17:54:52.245
52.0, -2440132.875, -2860429.125, -3397234.125, -4500000.375, -4500000.375, -3977625.75, -2838965.625, -2693328.5625, 4500000.0, 4500000.0, 4500000.0, 4500000.0, 4500000.0, -4500000.375, -4500000.375, -4500000.375, 0.04875000054016709, 0.9377500489354134, 0.39500002562999725, 192.0, 0.0, 0.0, 0.0, 0.0, 0.0, 0.0, 0.0, 0.0, 0.0, 1.6299356922452857E9, 2021-08-25 17:54:52.245
54.0, -2437776.75, -2854925.25, -3397505.25, -4500000.375, -4500000.375, -3978112.125, -2827693.3125, -2692050.1875, 4500000.0, 4500000.0, 4500000.0, 4500000.0, 4500000.0, -4500000.375, -4500000.375, -4500000.375, 0.04537500184960663, 0.9348750449717045, 0.39250002056360245, 192.0, 0.5, 40.0, 14.5, 16.0, 6.0, 24.0, 0.0, 0.0, 0.0, 1.6299356922452924E9, 2021-08-25 17:54:52.245
56.0, -2439555.1875, -2859463.125, -3397492.875, -4500000.375, -4500000.375, -3977887.875, -2836727.625, -2693264.8125, 4500000.0, 4500000.0, 4500000.0, 4500000.0, 4500000.0, -4500000.375, -4500000.375, -4500000.375, 0.04537500184960663, 0.9348750449717045, 0.39250002056360245, 192.0, 0.0, 0.0, 0.0, 0.0, 0.0, 0.0, 0.0, 0.0, 0.0, 1.629935692245299E9, 2021-08-25 17:54:52.245
58.0, -2438733.375, -2856668.625, -3397626.375, -4500000.375, -4500000.375, -3977941.5, -2830267.125, -2692206.375, 4500000.0, 4500000.0, 4500000.0, 4500000.0, 4500000.0, -4500000.375, -4500000.375, -4500000.375, 0.04537500184960663, 0.9348750449717045, 0.39250002056360245, 192.0, 0.0, 0.0, 0.0, 0.0, 0.0, 0.0, 0.0, 0.0, 0.0, 1.6299356922453055E9, 2021-08-25 17:54:52.245
60.0, -2438378.625, -2858706.5625, -3397633.875, -4500000.375, -4500000.375, -3977788.125, -2834065.125, -2692664.4375, 4500000.0, 4500000.0, 4500000.0, 4500000.0, 4500000.0, -4500000.375, -4500000.375, -4500000.375, 0.04537500184960663, 0.9348750449717045, 0.39250002056360245, 192.0, 0.0, 0.0, 0.0, 0.0, 0.0, 0.0, 0.0, 0.0, 0.0, 1.6299356922453125E9, 2021-08-25 17:54:52.245
62.0, -2438813.25, -2857900.3125, -3397353.75, -4500000.375, -4500000.375, -3977594.625, -2832430.125, -2691567.0, 4500000.0, 4500000.0, 4500000.0, 4500000.0, 4500000.0, -4500000.375, -4500000.375, -4500000.375, 0.04537500184960663, 0.9348750449717045, 0.39250002056360245, 192.0, 0.0, 0.0, 0.0, 0.0, 0.0, 0.0, 0.0, 0.0, 0.0, 1.629935692245319E9, 2021-08-25 17:54:52.245
64.0, -2437048.875, -2857399.3125, -3397896.0, -4500000.375, -4500000.375, -3978313.5, -2831650.125, -2692344.75, 4500000.0, 4500000.0, 4500000.0, 4500000.0, 4500000.0, -4500000.375, -4500000.375, -4500000.375, 0.036000002175569534, 0.9340000152587891, 0.3880000114440918, 192.0, 0.5, 16.0, 14.5, 24.0, 6.0, 16.0, 0.0, 0.0, 0.0, 1.6299356922453256E9, 2021-08-25 17:54:52.245
66.0, -2439985.3125, -2858950.125, -3397225.5, -4500000.375, -4500000.375, -3977851.125, -2835302.25, -2692291.6875, 4500000.0, 4500000.0, 4500000.0, 4500000.0, 4500000.0, -4500000.375, -4500000.375, -4500000.375, 0.036000002175569534, 0.9340000152587891, 0.3880000114440918, 192.0, 0.0, 0.0, 0.0, 0.0, 0.0, 0.0, 0.0, 0.0, 0.0, 1.629935692245332E9, 2021-08-25 17:54:52.245
68.0, -2436810.75, -2856000.375, -3397814.625, -4500000.375, -4500000.375, -3978249.0, -2829034.5, -2692743.9375, 4500000.0, 4500000.0, 4500000.0, 4500000.0, 4500000.0, -4500000.375, -4500000.375, -4500000.375, 0.036000002175569534, 0.9340000152587891, 0.3880000114440918, 192.0, 0.0, 0.0, 0.0, 0.0, 0.0, 0.0, 0.0, 0.0, 0.0, 1.629935692245339E9, 2021-08-25 17:54:52.245
70.0, -2441430.0, -2860025.25, -3397197.75, -4500000.375, -4500000.375, -3977431.5, -2837519.4375, -2693083.5, 4500000.0, 4500000.0, 4500000.0, 4500000.0, 4500000.0, -4500000.375, -4500000.375, -4500000.375, 0.036000002175569534, 0.9340000152587891, 0.3880000114440918, 192.0, 0.0, 0.0, 0.0, 0.0, 0.0, 0.0, 0.0, 0.0, 0.0, 1.6299356922453454E9, 2021-08-25 17:54:52.245
72.0, -2436576.75, -2854940.8125, -3398096.25, -4500000.375, -4500000.375, -3978483.375, -2826867.75, -2692777.125, 4500000.0, 4500000.0, 4500000.0, 4500000.0, 4500000.0, -4500000.375, -4500000.375, -4500000.375, 0.036000002175569534, 0.9340000152587891, 0.3880000114440918, 192.0, 0.0, 0.0, 0.0, 0.0, 0.0, 0.0, 0.0, 0.0, 0.0, 1.629935692245352E9, 2021-08-25 17:54:52.245
74.0, -2441975.625, -2861285.8125, -3397437.0, -4500000.375, -4500000.375, -3977791.875, -2840129.0625, -2693249.25, 4500000.0, 4500000.0, 4500000.0, 4500000.0, 4500000.0, -4500000.375, -4500000.375, -4500000.375, 0.04000000283122063, 0.9420000314712524, 0.39000001549720764, 192.0, 0.5, 32.0, 14.5, 56.0, 6.0, 24.0, 0.0, 0.0, 0.0, 1.6299356922453587E9, 2021-08-25 17:54:52.245
76.0, -2435880.5625, -2854137.1875, -3398220.75, -4500000.375, -4500000.375, -3978836.25, -2825381.8125, -2692217.625, 4500000.0, 4500000.0, 4500000.0, 4500000.0, 4500000.0, -4500000.375, -4500000.375, -4500000.375, 0.04000000283122063, 0.9420000314712524, 0.39000001549720764, 192.0, 0.0, 0.0, 0.0, 0.0, 0.0, 0.0, 0.0, 0.0, 0.0, 1.6299356922453651E9, 2021-08-25 17:54:52.245
78.0, -2441849.4375, -2861858.8125, -3396668.625, -4500000.375, -4500000.375, -3977167.125, -2841478.3125, -2692425.1875, 4500000.0, 4500000.0, 4500000.0, 4500000.0, 4500000.0, -4500000.375, -4500000.375, -4500000.375, 0.04000000283122063, 0.9420000314712524, 0.39000001549720764, 192.0, 0.0, 0.0, 0.0, 0.0, 0.0, 0.0, 0.0, 0.0, 0.0, 1.6299356922453735E9, 2021-08-25 17:54:52.245
80.0, -2435048.4375, -2853198.0, -3397841.625, -4500000.375, -4500000.375, -3978423.75, -2823835.875, -2691286.875, 4500000.0, 4500000.0, 4500000.0, 4500000.0, 4500000.0, -4500000.375, -4500000.375, -4500000.375, 0.04000000283122063, 0.9420000314712524, 0.39000001549720764, 192.0, 0.0, 0.0, 0.0, 0.0, 0.0, 0.0, 0.0, 0.0, 0.0, 1.6299356922453804E9, 2021-08-25 17:54:52.245
82.0, -2441828.0625, -2862248.8125, -3396821.625, -4500000.375, -4500000.375, -3977085.0, -2842599.9375, -2692507.3125, 4500000.0, 4500000.0, 4500000.0, 4500000.0, 4500000.0, -4500000.375, -4500000.375, -4500000.375, 0.04000000283122063, 0.9420000314712524, 0.39000001549720764, 192.0, 0.0, 0.0, 0.0, 0.0, 0.0, 0.0, 0.0, 0.0, 0.0, 1.6299356922453885E9, 2021-08-25 17:54:52.245
84.0, -2434844.0625, -2853149.625, -3397985.625, -4500000.375, -4500000.375, -3978448.5, -2823136.3125, -2691440.8125, 4500000.0, 4500000.0, 4500000.0, 4500000.0, 4500000.0, -4500000.375, -4500000.375, -4500000.375, 0.04000000283122063, 0.9380000233650208, 0.39000001549720764, 192.0, 0.5, 32.0, 14.5, 40.0, 6.0, 24.0, 0.0, 0.0, 0.0, 1.6299356922453952E9, 2021-08-25 17:54:52.245
86.0, -2441613.375, -2862484.3125, -3396568.5, -4500000.375, -4500000.375, -3976965.375, -2842814.625, -2692864.125, 4500000.0, 4500000.0, 4500000.0, 4500000.0, 4500000.0, -4500000.375, -4500000.375, -4500000.375, 0.04000000283122063, 0.9380000233650208, 0.39000001549720764, 192.0, 0.0, 0.0, 0.0, 0.0, 0.0, 0.0, 0.0, 0.0, 0.0, 1.6299356922454019E9, 2021-08-25 17:54:52.245
88.0, -2435222.8125, -2852951.25, -3397818.0, -4500000.375, -4500000.375, -3978481.125, -2822827.3125, -2691853.3125, 4500000.0, 4500000.0, 4500000.0, 4500000.0, 4500000.0, -4500000.375, -4500000.375, -4500000.375, 0.04000000283122063, 0.9380000233650208, 0.39000001549720764, 192.0, 0.0, 0.0, 0.0, 0.0, 0.0, 0.0, 0.0, 0.0, 0.0, 1.6299356922454083E9, 2021-08-25 17:54:52.245
90.0, -2442076.875, -2862473.0625, -3396834.375, -4500000.375, -4500000.375, -3977299.125, -2842577.4375, -2693598.375, 4500000.0, 4500000.0, 4500000.0, 4500000.0, 4500000.0, -4500000.375, -4500000.375, -4500000.375, 0.04000000283122063, 0.9380000233650208, 0.39000001549720764, 192.0, 0.0, 0.0, 0.0, 0.0, 0.0, 0.0, 0.0, 0.0, 0.0, 1.629935692245415E9, 2021-08-25 17:54:52.245
92.0, -2436454.5, -2853317.625, -3398040.0, -4500000.375, -4500000.375, -3978880.5, -2823669.0, -2692564.125, 4500000.0, 4500000.0, 4500000.0, 4500000.0, 4500000.0, -4500000.375, -4500000.375, -4500000.375, 0.04000000283122063, 0.9380000233650208, 0.39000001549720764, 192.0, 0.0, 0.0, 0.0, 0.0, 0.0, 0.0, 0.0, 0.0, 0.0, 1.6299356922454216E9, 2021-08-25 17:54:52.245
94.0, -2442129.5625, -2862101.8125, -3397219.875, -4500000.375, -4500000.375, -3977767.125, -2842288.875, -2694089.8125, 4500000.0, 4500000.0, 4500000.0, 4500000.0, 4500000.0, -4500000.375, -4500000.375, -4500000.375, 0.04000000283122063, 0.9380000233650208, 0.38600000739097595, 192.0, 0.5, 32.0, 14.5, 40.0, 6.0, 8.0, 0.0, 0.0, 0.0, 1.629935692245428E9, 2021-08-25 17:54:52.245
96.0, -2436900.375, -2853970.5, -3398184.375, -4500000.375, -4500000.375, -3978729.75, -2825066.4375, -2692304.0625, 4500000.0, 4500000.0, 4500000.0, 4500000.0, 4500000.0, -4500000.375, -4500000.375, -4500000.375, 0.04000000283122063, 0.9380000233650208, 0.38600000739097595, 192.0, 0.0, 0.0, 0.0, 0.0, 0.0, 0.0, 0.0, 0.0, 0.0, 1.6299356922454348E9, 2021-08-25 17:54:52.245
98.0, -2441011.5, -2861652.75, -3397471.125, -4500000.375, -4500000.375, -3977800.875, -2840787.375, -2693519.625, 4500000.0, 4500000.0, 4500000.0, 4500000.0, 4500000.0, -4500000.375, -4500000.375, -4500000.375, 0.04000000283122063, 0.9380000233650208, 0.38600000739097595, 192.0, 0.0, 0.0, 0.0, 0.0, 0.0, 0.0, 0.0, 0.0, 0.0, 1.6299356922454417E9, 2021-08-25 17:54:52.245
100.0, -2436939.375, -2854820.0625, -3397956.375, -4500000.375, -4500000.375, -3978648.75, -2826686.4375, -2691712.3125, 4500000.0, 4500000.0, 4500000.0, 4500000.0, 4500000.0, -4500000.375, -4500000.375, -4500000.375, 0.04000000283122063, 0.9380000233650208, 0.38600000739097595, 192.0, 0.0, 0.0, 0.0, 0.0, 0.0, 0.0, 0.0, 0.0, 0.0, 1.629935692245448E9, 2021-08-25 17:54:52.245
102.0, -2439562.6875, -2860729.125, -3397314.0, -4500000.375, -4500000.375, -3977913.0, -2838975.75, -2692654.875, 4500000.0, 4500000.0, 4500000.0, 4500000.0, 4500000.0, -4500000.375, -4500000.375, -4500000.375, 0.04000000283122063, 0.9380000233650208, 0.38600000739097595, 192.0, 0.0, 0.0, 0.0, 0.0, 0.0, 0.0, 0.0, 0.0, 0.0, 1.6299356922454548E9, 2021-08-25 17:54:52.245
104.0, -2437410.9375, -2855887.125, -3397768.875, -4500000.375, -4500000.375, -3978690.375, -2829037.6875, -2691909.1875, 4500000.0, 4500000.0, 4500000.0, 4500000.0, 4500000.0, -4500000.375, -4500000.375, -4500000.375, 0.046000003814697266, 0.940000057220459, 0.3800000250339508, 192.0, 0.5, 56.0, 14.5, 48.0, 5.5, 112.0, 0.0, 0.0, 0.0, 1.6299356922454612E9, 2021-08-25 17:54:52.245
106.0, -2438648.625, -2859536.0625, -3397139.625, -4500000.375, -4500000.375, -3977852.625, -2836827.9375, -2693138.25, 4500000.0, 4500000.0, 4500000.0, 4500000.0, 4500000.0, -4500000.375, -4500000.375, -4500000.375, 0.046000003814697266, 0.940000057220459, 0.3800000250339508, 192.0, 0.0, 0.0, 0.0, 0.0, 0.0, 0.0, 0.0, 0.0, 0.0, 1.6299356927261407E9, 2021-08-25 17:54:52.726
108.0, -2438683.875, -2856769.5, -3397278.75, -4500000.375, -4500000.375, -3978033.75, -2831037.0, -2692636.125, 4500000.0, 4500000.0, 4500000.0, 4500000.0, 4500000.0, -4500000.375, -4500000.375, -4500000.375, 0.046000003814697266, 0.940000057220459, 0.3800000250339508, 192.0, 0.0, 0.0, 0.0, 0.0, 0.0, 0.0, 0.0, 0.0, 0.0, 1.6299356927261505E9, 2021-08-25 17:54:52.726
110.0, -2438848.125, -2858365.5, -3397500.375, -4500000.375, -4500000.375, -3978022.125, -2834064.75, -2693521.6875, 4500000.0, 4500000.0, 4500000.0, 4500000.0, 4500000.0, -4500000.375, -4500000.375, -4500000.375, 0.046000003814697266, 0.940000057220459, 0.3800000250339508, 192.0, 0.0, 0.0, 0.0, 0.0, 0.0, 0.0, 0.0, 0.0, 0.0, 1.6299356927261589E9, 2021-08-25 17:54:52.726
112.0, -2440468.125, -2858050.5, -3397328.25, -4500000.375, -4500000.375, -3977895.375, -2833598.4375, -2692859.25, 4500000.0, 4500000.0, 4500000.0, 4500000.0, 4500000.0, -4500000.375, -4500000.375, -4500000.375, 0.046000003814697266, 0.9380000531673431, 0.3830000162124634, 192.0, 0.5, 56.0, 14.5, 32.0, 6.0, 8.0, 0.0, 0.0, 0.0, 1.6299356927261758E9, 2021-08-25 17:54:52.726
114.0, -2438327.25, -2857368.75, -3397999.875, -4500000.375, -4500000.375, -3978498.375, -2831738.0625, -2693252.4375, 4500000.0, 4500000.0, 4500000.0, 4500000.0, 4500000.0, -4500000.375, -4500000.375, -4500000.375, 0.046000003814697266, 0.9380000531673431, 0.3830000162124634, 192.0, 0.0, 0.0, 0.0, 0.0, 0.0, 0.0, 0.0, 0.0, 0.0, 1.629935692726197E9, 2021-08-25 17:54:52.726
116.0, -2440827.0, -2859467.25, -3397052.25, -4500000.375, -4500000.375, -3977736.0, -2836173.9375, -2692739.0625, 4500000.0, 4500000.0, 4500000.0, 4500000.0, 4500000.0, -4500000.375, -4500000.375, -4500000.375, 0.046000003814697266, 0.9380000531673431, 0.3830000162124634, 192.0, 0.0, 0.0, 0.0, 0.0, 0.0, 0.0, 0.0, 0.0, 0.0, 1.6299356927262049E9, 2021-08-25 17:54:52.726
118.0, -2436733.5, -2856219.1875, -3397788.375, -4500000.375, -4500000.375, -3978606.375, -2829080.0625, -2692666.6875, 4500000.0, 4500000.0, 4500000.0, 4500000.0, 4500000.0, -4500000.375, -4500000.375, -4500000.375, 0.046000003814697266, 0.9380000531673431, 0.3830000162124634, 192.0, 0.0, 0.0, 0.0, 0.0, 0.0, 0.0, 0.0, 0.0, 0.0, 1.6299356927262127E9, 2021-08-25 17:54:52.726
120.0, -2441191.3125, -2860928.0625, -3397294.875, -4500000.375, -4500000.375, -3978193.875, -2838450.0, -2693107.5, 4500000.0, 4500000.0, 4500000.0, 4500000.0, 4500000.0, -4500000.375, -4500000.375, -4500000.375, 0.046000003814697266, 0.9380000531673431, 0.3830000162124634, 192.0, 0.0, 0.0, 0.0, 0.0, 0.0, 0.0, 0.0, 0.0, 0.0, 1.6299356927262206E9, 2021-08-25 17:54:52.726
122.0, -2435937.9375, -2855217.1875, -3397953.375, -4500000.375, -4500000.375, -3978944.25, -2826884.4375, -2692477.875, 4500000.0, 4500000.0, 4500000.0, 4500000.0, 4500000.0, -4500000.375, -4500000.375, -4500000.375, 0.04500000365078449, 0.9370000511407852, 0.38450001180171967, 192.0, 0.5, 48.0, 14.5, 32.0, 6.0, 8.0, 0.0, 0.0, 0.0, 1.6299356927262287E9, 2021-08-25 17:54:52.726
124.0, -2441301.1875, -2861608.875, -3396840.375, -4500000.375, -4500000.375, -3977806.5, -2840162.4375, -2692820.625, 4500000.0, 4500000.0, 4500000.0, 4500000.0, 4500000.0, -4500000.375, -4500000.375, -4500000.375, 0.04500000365078449, 0.9370000511407852, 0.38450001180171967, 192.0, 0.0, 0.0, 0.0, 0.0, 0.0, 0.0, 0.0, 0.0, 0.0, 1.6299356927262368E9, 2021-08-25 17:54:52.726
126.0, -2435162.8125, -2854225.125, -3397856.625, -4500000.375, -4500000.375, -3978987.75, -2824775.625, -2692072.3125, 4500000.0, 4500000.0, 4500000.0, 4500000.0, 4500000.0, -4500000.375, -4500000.375, -4500000.375, 0.04500000365078449, 0.9370000511407852, 0.38450001180171967, 192.0, 0.0, 0.0, 0.0, 0.0, 0.0, 0.0, 0.0, 0.0, 0.0, 1.6299356927262452E9, 2021-08-25 17:54:52.726
128.0, -2441664.375, -2862273.0, -3396564.0, -4500000.375, -4500000.375, -3977471.625, -2841124.6875, -2692937.625, 4500000.0, 4500000.0, 4500000.0, 4500000.0, 4500000.0, -4500000.375, -4500000.375, -4500000.375, 0.04500000365078449, 0.9370000511407852, 0.38450001180171967, 192.0, 0.0, 0.0, 0.0, 0.0, 0.0, 0.0, 0.0, 0.0, 0.0, 1.6299356927262533E9, 2021-08-25 17:54:52.726
130.0, -2435432.0625, -2853648.5625, -3397871.625, -4500000.375, -4500000.375, -3978711.0, -2822900.8125, -2692314.75, 4500000.0, 4500000.0, 4500000.0, 4500000.0, 4500000.0, -4500000.375, -4500000.375, -4500000.375, 0.04500000365078449, 0.9370000511407852, 0.38450001180171967, 192.0, 0.0, 0.0, 0.0, 0.0, 0.0, 0.0, 0.0, 0.0, 0.0, 1.6299356927262614E9, 2021-08-25 17:54:52.726
132.0, -2442396.1875, -2862717.5625, -3396738.375, -4500000.375, -4500000.375, -3977314.875, -2841792.1875, -2693466.9375, 4500000.0, 4500000.0, 4500000.0, 4500000.0, 4500000.0, -4500000.375, -4500000.375, -4500000.375, 0.0465000020340085, 0.9355000331997871, 0.38625001162290573, 192.0, 0.5, 64.0, 14.5, 24.0, 6.0, 16.0, 0.0, 0.0, 0.0, 1.6299356927262704E9, 2021-08-25 17:54:52.726
134.0, -2435722.3125, -2853363.75, -3398044.125, -4500000.375, -4500000.375, -3978808.5, -2822210.4375, -2692328.0625, 4500000.0, 4500000.0, 4500000.0, 4500000.0, 4500000.0, -4500000.375, -4500000.375, -4500000.375, 0.0465000020340085, 0.9355000331997871, 0.38625001162290573, 192.0, 0.0, 0.0, 0.0, 0.0, 0.0, 0.0, 0.0, 0.0, 0.0, 1.6299356927262785E9, 2021-08-25 17:54:52.726
136.0, -2442225.0, -2862691.875, -3396466.5, -4500000.375, -4500000.375, -3977118.75, -2841987.375, -2693357.625, 4500000.0, 4500000.0, 4500000.0, 4500000.0, 4500000.0, -4500000.375, -4500000.375, -4500000.375, 0.0465000020340085, 0.9355000331997871, 0.38625001162290573, 192.0, 0.0, 0.0, 0.0, 0.0, 0.0, 0.0, 0.0, 0.0, 0.0, 1.6299356927262864E9, 2021-08-25 17:54:52.726
138.0, -2435532.375, -2852922.75, -3397824.75, -4500000.375, -4500000.375, -3978909.75, -2822356.875, -2692095.9375, 4500000.0, 4500000.0, 4500000.0, 4500000.0, 4500000.0, -4500000.375, -4500000.375, -4500000.375, 0.0465000020340085, 0.9355000331997871, 0.38625001162290573, 192.0, 0.0, 0.0, 0.0, 0.0, 0.0, 0.0, 0.0, 0.0, 0.0, 1.6299356927262948E9, 2021-08-25 17:54:52.726
140.0, -2441586.1875, -2862585.1875, -3397058.625, -4500000.375, -4500000.375, -3977935.125, -2842191.75, -2693580.75, 4500000.0, 4500000.0, 4500000.0, 4500000.0, 4500000.0, -4500000.375, -4500000.375, -4500000.375, 0.0465000020340085, 0.9355000331997871, 0.38625001162290573, 192.0, 0.0, 0.0, 0.0, 0.0, 0.0, 0.0, 0.0, 0.0, 0.0, 1.6299356927263029E9, 2021-08-25 17:54:52.726
142.0, -2435663.25, -2853717.75, -3398330.25, -4500000.375, -4500000.375, -3979462.875, -2823513.375, -2692012.125, 4500000.0, 4500000.0, 4500000.0, 4500000.0, 4500000.0, -4500000.375, -4500000.375, -4500000.375, 0.04525000276044011, 0.9377500452101231, 0.38712501153349876, 192.0, 0.5, 48.0, 14.5, 48.0, 6.0, 16.0, 0.0, 0.0, 0.0, 1.6299356927263355E9, 2021-08-25 17:54:52.726
144.0, -2440794.9375, -2862416.0625, -3397104.375, -4500000.375, -4500000.375, -3977964.75, -2841348.375, -2693211.75, 4500000.0, 4500000.0, 4500000.0, 4500000.0, 4500000.0, -4500000.375, -4500000.375, -4500000.375, 0.04525000276044011, 0.9377500452101231, 0.38712501153349876, 192.0, 0.0, 0.0, 0.0, 0.0, 0.0, 0.0, 0.0, 0.0, 0.0, 1.629935692726344E9, 2021-08-25 17:54:52.726
146.0, -2436082.6875, -2854282.6875, -3397813.125, -4500000.375, -4500000.375, -3978924.75, -2824383.9375, -2691882.9375, 4500000.0, 4500000.0, 4500000.0, 4500000.0, 4500000.0, -4500000.375, -4500000.375, -4500000.375, 0.04525000276044011, 0.9377500452101231, 0.38712501153349876, 192.0, 0.0, 0.0, 0.0, 0.0, 0.0, 0.0, 0.0, 0.0, 0.0, 1.6299356927263565E9, 2021-08-25 17:54:52.726
148.0, -2440593.1875, -2861565.9375, -3397168.875, -4500000.375, -4500000.375, -3978063.75, -2839607.25, -2693637.5625, 4500000.0, 4500000.0, 4500000.0, 4500000.0, 4500000.0, -4500000.375, -4500000.375, -4500000.375, 0.04525000276044011, 0.9377500452101231, 0.38712501153349876, 192.0, 0.0, 0.0, 0.0, 0.0, 0.0, 0.0, 0.0, 0.0, 0.0, 1.6299356927263646E9, 2021-08-25 17:54:52.726
150.0, -2437247.8125, -2854952.0625, -3397590.0, -4500000.375, -4500000.375, -3978675.0, -2826128.625, -2692107.75, 4500000.0, 4500000.0, 4500000.0, 4500000.0, 4500000.0, -4500000.375, -4500000.375, -4500000.375, 0.04525000276044011, 0.9377500452101231, 0.38712501153349876, 192.0, 0.0, 0.0, 0.0, 0.0, 0.0, 0.0, 0.0, 0.0, 0.0, 1.6299356927263856E9, 2021-08-25 17:54:52.726
152.0, -2440071.75, -2860455.9375, -3397271.25, -4500000.375, -4500000.375, -3978134.25, -2837727.0, -2693501.25, 4500000.0, 4500000.0, 4500000.0, 4500000.0, 4500000.0, -4500000.375, -4500000.375, -4500000.375, 0.04800000041723251, 0.9380000233650208, 0.3920000195503235, 192.0, 0.5, 64.0, 14.5, 40.0, 6.0, 32.0, 0.0, 0.0, 0.0, 1.6299356927263935E9, 2021-08-25 17:54:52.726
154.0, -2438065.5, -2856188.0625, -3397542.0, -4500000.375, -4500000.375, -3978449.625, -2828175.0, -2692074.9375, 4500000.0, 4500000.0, 4500000.0, 4500000.0, 4500000.0, -4500000.375, -4500000.375, -4500000.375, 0.04800000041723251, 0.9380000233650208, 0.3920000195503235, 192.0, 0.0, 0.0, 0.0, 0.0, 0.0, 0.0, 0.0, 0.0, 0.0, 1.6299356927264016E9, 2021-08-25 17:54:52.726
156.0, -2438814.375, -2859545.0625, -3397165.5, -4500000.375, -4500000.375, -3977874.0, -2835089.8125, -2692786.3125, 4500000.0, 4500000.0, 4500000.0, 4500000.0, 4500000.0, -4500000.375, -4500000.375, -4500000.375, 0.04800000041723251, 0.9380000233650208, 0.3920000195503235, 192.0, 0.0, 0.0, 0.0, 0.0, 0.0, 0.0, 0.0, 0.0, 0.0, 1.6299356927264094E9, 2021-08-25 17:54:52.726
158.0, -2438621.8125, -2857472.8125, -3397483.125, -4500000.375, -4500000.375, -3978424.875, -2830558.5, -2692055.625, 4500000.0, 4500000.0, 4500000.0, 4500000.0, 4500000.0, -4500000.375, -4500000.375, -4500000.375, 0.04800000041723251, 0.9380000233650208, 0.3920000195503235, 192.0, 0.0, 0.0, 0.0, 0.0, 0.0, 0.0, 0.0, 0.0, 0.0, 1.6299356927264175E9, 2021-08-25 17:54:52.726
160.0, -2437917.9375, -2858673.375, -3397731.0, -4500000.375, -4500000.375, -3978636.375, -2832934.875, -2692898.4375, 4500000.0, 4500000.0, 4500000.0, 4500000.0, 4500000.0, -4500000.375, -4500000.375, -4500000.375, 0.04800000041723251, 0.9380000233650208, 0.3920000195503235, 192.0, 0.0, 0.0, 0.0, 0.0, 0.0, 0.0, 0.0, 0.0, 0.0, 1.629935692726426E9, 2021-08-25 17:54:52.726
162.0, -2439392.625, -2858698.6875, -3397354.875, -4500000.375, -4500000.375, -3978458.625, -2833522.875, -2692416.5625, 4500000.0, 4500000.0, 4500000.0, 4500000.0, 4500000.0, -4500000.375, -4500000.375, -4500000.375, 0.05000000074505806, 0.9320000410079956, 0.3920000195503235, 192.0, 0.5, 72.0, 14.5, 16.0, 6.0, 32.0, 0.0, 0.0, 0.0, 1.6299356927264335E9, 2021-08-25 17:54:52.726
164.0, -2437022.0625, -2857457.25, -3398004.0, -4500000.375, -4500000.375, -3979072.5, -2830796.0625, -2693064.1875, 4500000.0, 4500000.0, 4500000.0, 4500000.0, 4500000.0, -4500000.375, -4500000.375, -4500000.375, 0.05000000074505806, 0.9320000410079956, 0.3920000195503235, 192.0, 0.0, 0.0, 0.0, 0.0, 0.0, 0.0, 0.0, 0.0, 0.0, 1.6299356927264419E9, 2021-08-25 17:54:52.726
166.0, -2440351.6875, -2860029.0, -3397385.625, -4500000.375, -4500000.375, -3978451.875, -2835925.125, -2692874.25, 4500000.0, 4500000.0, 4500000.0, 4500000.0, 4500000.0, -4500000.375, -4500000.375, -4500000.375, 0.05000000074505806, 0.9320000410079956, 0.3920000195503235, 192.0, 0.0, 0.0, 0.0, 0.0, 0.0, 0.0, 0.0, 0.0, 0.0, 1.6299356927264497E9, 2021-08-25 17:54:52.726
168.0, -2436734.4375, -2856263.25, -3398069.25, -4500000.375, -4500000.375, -3979230.0, -2828336.0625, -2692857.0, 4500000.0, 4500000.0, 4500000.0, 4500000.0, 4500000.0, -4500000.375, -4500000.375, -4500000.375, 0.05000000074505806, 0.9320000410079956, 0.3920000195503235, 192.0, 0.0, 0.0, 0.0, 0.0, 0.0, 0.0, 0.0, 0.0, 0.0, 1.6299356927264576E9, 2021-08-25 17:54:52.726
170.0, -2441436.375, -2860867.5, -3397034.625, -4500000.375, -4500000.375, -3978064.875, -2838228.5625, -2692985.8125, 4500000.0, 4500000.0, 4500000.0, 4500000.0, 4500000.0, -4500000.375, -4500000.375, -4500000.375, 0.05000000074505806, 0.9320000410079956, 0.3920000195503235, 192.0, 0.0, 0.0, 0.0, 0.0, 0.0, 0.0, 0.0, 0.0, 0.0, 1.6299356927264655E9, 2021-08-25 17:54:52.726
172.0, -2436202.3125, -2855070.5625, -3398004.375, -4500000.375, -4500000.375, -3978886.125, -2826126.375, -2692779.375, 4500000.0, 4500000.0, 4500000.0, 4500000.0, 4500000.0, -4500000.375, -4500000.375, -4500000.375, 0.04400000348687172, 0.9280000329017639, 0.39000001549720764, 192.0, 0.5, 48.0, 14.5, 0.0, 6.0, 24.0, 0.0, 0.0, 0.0, 1.629935692726473E9, 2021-08-25 17:54:52.726
174.0, -2441734.6875, -2861703.1875, -3396710.25, -4500000.375, -4500000.375, -3977437.875, -2840154.9375, -2693265.375, 4500000.0, 4500000.0, 4500000.0, 4500000.0, 4500000.0, -4500000.375, -4500000.375, -4500000.375, 0.04400000348687172, 0.9280000329017639, 0.39000001549720764, 192.0, 0.0, 0.0, 0.0, 0.0, 0.0, 0.0, 0.0, 0.0, 0.0, 1.6299356927264812E9, 2021-08-25 17:54:52.726
176.0, -2435576.8125, -2853974.625, -3397944.375, -4500000.375, -4500000.375, -3978788.25, -2824013.4375, -2692686.0, 4500000.0, 4500000.0, 4500000.0, 4500000.0, 4500000.0, -4500000.375, -4500000.375, -4500000.375, 0.04400000348687172, 0.9280000329017639, 0.39000001549720764, 192.0, 0.0, 0.0, 0.0, 0.0, 0.0, 0.0, 0.0, 0.0, 0.0, 1.6299356927264888E9, 2021-08-25 17:54:52.726
178.0, -2442037.3125, -2862361.875, -3396899.625, -4500000.375, -4500000.375, -3977593.875, -2841052.875, -2693385.9375, 4500000.0, 4500000.0, 4500000.0, 4500000.0, 4500000.0, -4500000.375, -4500000.375, -4500000.375, 0.04400000348687172, 0.9280000329017639, 0.39000001549720764, 192.0, 0.0, 0.0, 0.0, 0.0, 0.0, 0.0, 0.0, 0.0, 0.0, 1.6299356927264967E9, 2021-08-25 17:54:52.726
180.0, -2435346.75, -2853702.1875, -3398268.375, -4500000.375, -4500000.375, -3979163.25, -2822793.9375, -2692275.5625, 4500000.0, 4500000.0, 4500000.0, 4500000.0, 4500000.0, -4500000.375, -4500000.375, -4500000.375, 0.04400000348687172, 0.9280000329017639, 0.39000001549720764, 192.0, 0.0, 0.0, 0.0, 0.0, 0.0, 0.0, 0.0, 0.0, 0.0, 1.629935692726508E9, 2021-08-25 17:54:52.726
182.0, -2442258.1875, -2863028.8125, -3397212.75, -4500000.375, -4500000.375, -3977985.0, -2842035.5625, -2693694.0, 4500000.0, 4500000.0, 4500000.0, 4500000.0, 4500000.0, -4500000.375, -4500000.375, -4500000.375, 0.04200000315904617, 0.9360000491142273, 0.39000001549720764, 192.0, 0.5, 40.0, 14.5, 32.0, 6.0, 24.0, 0.0, 0.0, 0.0, 1.629935692726516E9, 2021-08-25 17:54:52.726
184.0, -2435390.8125, -2853748.3125, -3398371.875, -4500000.375, -4500000.375, -3979342.875, -2822468.4375, -2692607.0625, 4500000.0, 4500000.0, 4500000.0, 4500000.0, 4500000.0, -4500000.375, -4500000.375, -4500000.375, 0.04200000315904617, 0.9360000491142273, 0.39000001549720764, 192.0, 0.0, 0.0, 0.0, 0.0, 0.0, 0.0, 0.0, 0.0, 0.0, 1.629935692726524E9, 2021-08-25 17:54:52.726
186.0, -2442190.125, -2863303.5, -3397173.0, -4500000.375, -4500000.375, -3977930.25, -2842384.875, -2694035.0625, 4500000.0, 4500000.0, 4500000.0, 4500000.0, 4500000.0, -4500000.375, -4500000.375, -4500000.375, 0.04200000315904617, 0.9360000491142273, 0.39000001549720764, 192.0, 0.0, 0.0, 0.0, 0.0, 0.0, 0.0, 0.0, 0.0, 0.0, 1.629935692726532E9, 2021-08-25 17:54:52.726
188.0, -2435816.625, -2853924.75, -3398383.875, -4500000.375, -4500000.375, -3979372.875, -2822767.6875, -2692613.0625, 4500000.0, 4500000.0, 4500000.0, 4500000.0, 4500000.0, -4500000.375, -4500000.375, -4500000.375, 0.04200000315904617, 0.9360000491142273, 0.39000001549720764, 192.0, 0.0, 0.0, 0.0, 0.0, 0.0, 0.0, 0.0, 0.0, 0.0, 1.6299356927265399E9, 2021-08-25 17:54:52.726
190.0, -2441561.4375, -2862753.0, -3396869.25, -4500000.375, -4500000.375, -3977717.25, -2841955.125, -2693742.75, 4500000.0, 4500000.0, 4500000.0, 4500000.0, 4500000.0, -4500000.375, -4500000.375, -4500000.375, 0.04200000315904617, 0.9360000491142273, 0.39000001549720764, 192.0, 0.0, 0.0, 0.0, 0.0, 0.0, 0.0, 0.0, 0.0, 0.0, 1.6299356927265477E9, 2021-08-25 17:54:52.726
192.0, -2435946.5625, -2853517.6875, -3397734.75, -4500000.375, -4500000.375, -3978802.125, -2823216.75, -2692339.5, 4500000.0, 4500000.0, 4500000.0, 4500000.0, 4500000.0, -4500000.375, -4500000.375, -4500000.375, 0.04400000348687172, 0.9380000233650208, 0.4000000059604645, 192.0, 0.5, 48.0, 14.5, 40.0, 6.0, 64.0, 0.0, 0.0, 0.0, 1.6299356927265556E9, 2021-08-25 17:54:52.726
194.0, -2441365.125, -2862179.0625, -3396843.75, -4500000.375, -4500000.375, -3977705.625, -2840796.5625, -2693949.1875, 4500000.0, 4500000.0, 4500000.0, 4500000.0, 4500000.0, -4500000.375, -4500000.375, -4500000.375, 0.04400000348687172, 0.9380000233650208, 0.4000000059604645, 192.0, 0.0, 0.0, 0.0, 0.0, 0.0, 0.0, 0.0, 0.0, 0.0, 1.6299356927265637E9, 2021-08-25 17:54:52.726
196.0, -2436951.75, -2854446.1875, -3397643.625, -4500000.375, -4500000.375, -3978799.875, -2824689.75, -2692622.0625, 4500000.0, 4500000.0, 4500000.0, 4500000.0, 4500000.0, -4500000.375, -4500000.375, -4500000.375, 0.04400000348687172, 0.9380000233650208, 0.4000000059604645, 192.0, 0.0, 0.0, 0.0, 0.0, 0.0, 0.0, 0.0, 0.0, 0.0, 1.6299356927265718E9, 2021-08-25 17:54:52.726
198.0, -2440875.9375, -2861606.0625, -3397198.875, -4500000.375, -4500000.375, -3978001.875, -2839340.0625, -2694059.25, 4500000.0, 4500000.0, 4500000.0, 4500000.0, 4500000.0, -4500000.375, -4500000.375, -4500000.375, 0.04400000348687172, 0.9380000233650208, 0.4000000059604645, 192.0, 0.0, 0.0, 0.0, 0.0, 0.0, 0.0, 0.0, 0.0, 0.0, 1.62993569272658E9, 2021-08-25 17:54:52.726
200.0, -2437734.375, -2855430.5625, -3397858.5, -4500000.375, -4500000.375, -3978791.25, -2826604.875, -2692637.625, 4500000.0, 4500000.0, 4500000.0, 4500000.0, 4500000.0, -4500000.375, -4500000.375, -4500000.375, 0.04400000348687172, 0.937000036239624, 0.396000012755394, 192.0, 0.5, 48.0, 14.5, 32.0, 6.0, 32.0, 0.0, 0.0, 0.0, 1.629935692726588E9, 2021-08-25 17:54:52.726
202.0, -2439887.8125, -2860609.875, -3397411.125, -4500000.375, -4500000.375, -3977949.75, -2837169.0, -2693624.25, 4500000.0, 4500000.0, 4500000.0, 4500000.0, 4500000.0, -4500000.375, -4500000.375, -4500000.375, 0.04400000348687172, 0.937000036239624, 0.396000012755394, 192.0, 0.0, 0.0, 0.0, 0.0, 0.0, 0.0, 0.0, 0.0, 0.0, 1.629935692726596E9, 2021-08-25 17:54:52.726
204.0, -2438351.8125, -2856717.0, -3398022.75, -4500000.375, -4500000.375, -3978642.75, -2828508.1875, -2692660.125, 4500000.0, 4500000.0, 4500000.0, 4500000.0, 4500000.0, -4500000.375, -4500000.375, -4500000.375, 0.04400000348687172, 0.937000036239624, 0.396000012755394, 192.0, 0.0, 0.0, 0.0, 0.0, 0.0, 0.0, 0.0, 0.0, 0.0, 1.6299356927266035E9, 2021-08-25 17:54:52.726
206.0, -2439107.25, -2859911.4375, -3397961.625, -4500000.375, -4500000.375, -3978442.125, -2834765.25, -2693710.5, 4500000.0, 4500000.0, 4500000.0, 4500000.0, 4500000.0, -4500000.375, -4500000.375, -4500000.375, 0.04400000348687172, 0.937000036239624, 0.396000012755394, 192.0, 0.0, 0.0, 0.0, 0.0, 0.0, 0.0, 0.0, 0.0, 0.0, 1.6299356927266119E9, 2021-08-25 17:54:52.726
208.0, -2439232.125, -2857936.875, -3397708.875, -4500000.375, -4500000.375, -3978414.75, -2830963.5, -2692899.0, 4500000.0, 4500000.0, 4500000.0, 4500000.0, 4500000.0, -4500000.375, -4500000.375, -4500000.375, 0.04400000348687172, 0.937000036239624, 0.396000012755394, 192.0, 0.0, 0.0, 0.0, 0.0, 0.0, 0.0, 0.0, 0.0, 0.0, 1.6299356927266195E9, 2021-08-25 17:54:52.726
210.0, -2438380.3125, -2858510.25, -3398006.625, -4500000.375, -4500000.375, -3978843.75, -2832591.5625, -2693558.25, 4500000.0, 4500000.0, 4500000.0, 4500000.0, 4500000.0, -4500000.375, -4500000.375, -4500000.375, 0.04500000365078449, 0.9365000426769257, 0.3920000120997429, 192.0, 0.5, 56.0, 14.5, 32.0, 6.0, 16.0, 0.0, 0.0, 0.0, 1.6299356927266293E9, 2021-08-25 17:54:52.726
212.0, -2440340.4375, -2859140.0625, -3397710.0, -4500000.375, -4500000.375, -3978626.625, -2833964.8125, -2692942.3125, 4500000.0, 4500000.0, 4500000.0, 4500000.0, 4500000.0, -4500000.375, -4500000.375, -4500000.375, 0.04500000365078449, 0.9365000426769257, 0.3920000120997429, 192.0, 0.0, 0.0, 0.0, 0.0, 0.0, 0.0, 0.0, 0.0, 0.0, 1.629935692726637E9, 2021-08-25 17:54:52.726
214.0, -2437740.9375, -2857389.1875, -3398411.625, -4500000.375, -4500000.375, -3979294.875, -2830331.625, -2693318.4375, 4500000.0, 4500000.0, 4500000.0, 4500000.0, 4500000.0, -4500000.375, -4500000.375, -4500000.375, 0.04500000365078449, 0.9365000426769257, 0.3920000120997429, 192.0, 0.0, 0.0, 0.0, 0.0, 0.0, 0.0, 0.0, 0.0, 0.0, 1.6299356927266488E9, 2021-08-25 17:54:52.726
216.0, -2440901.625, -2860449.0, -3397671.75, -4500000.375, -4500000.375, -3978583.125, -2836615.5, -2693051.8125, 4500000.0, 4500000.0, 4500000.0, 4500000.0, 4500000.0, -4500000.375, -4500000.375, -4500000.375, 0.04500000365078449, 0.9365000426769257, 0.3920000120997429, 192.0, 0.0, 0.0, 0.0, 0.0, 0.0, 0.0, 0.0, 0.0, 0.0, 1.629935692726657E9, 2021-08-25 17:54:52.726
218.0, -2436559.6875, -2856151.5, -3398389.5, -4500000.375, -4500000.375, -3979349.25, -2827778.0625, -2693140.3125, 4500000.0, 4500000.0, 4500000.0, 4500000.0, 4500000.0, -4500000.375, -4500000.375, -4500000.375, 0.04500000365078449, 0.9365000426769257, 0.3920000120997429, 192.0, 0.0, 0.0, 0.0, 0.0, 0.0, 0.0, 0.0, 0.0, 0.0, 1.6299356927266645E9, 2021-08-25 17:54:52.726
220.0, -2441395.125, -2861304.5625, -3397249.125, -4500000.375, -4500000.375, -3978367.125, -2838668.4375, -2693443.875, 4500000.0, 4500000.0, 4500000.0, 4500000.0, 4500000.0, -4500000.375, -4500000.375, -4500000.375, 0.044500003568828106, 0.9372500330209732, 0.39100001379847527, 192.0, 0.5, 48.0, 14.5, 40.0, 6.0, 24.0, 0.0, 0.0, 0.0, 1.6299356927266724E9, 2021-08-25 17:54:52.726
222.0, -2436119.8125, -2855140.3125, -3398341.5, -4500000.375, -4500000.375, -3979507.125, -2825766.375, -2693189.625, 4500000.0, 4500000.0, 4500000.0, 4500000.0, 4500000.0, -4500000.375, -4500000.375, -4500000.375, 0.044500003568828106, 0.9372500330209732, 0.39100001379847527, 192.0, 0.0, 0.0, 0.0, 0.0, 0.0, 0.0, 0.0, 0.0, 0.0, 1.62993569272668E9, 2021-08-25 17:54:52.726
224.0, -2441992.125, -2862537.9375, -3397380.75, -4500000.375, -4500000.375, -3978228.0, -2840446.125, -2693715.375, 4500000.0, 4500000.0, 4500000.0, 4500000.0, 4500000.0, -4500000.375, -4500000.375, -4500000.375, 0.044500003568828106, 0.9372500330209732, 0.39100001379847527, 192.0, 0.0, 0.0, 0.0, 0.0, 0.0, 0.0, 0.0, 0.0, 0.0, 1.6299356927266877E9, 2021-08-25 17:54:52.726
226.0, -2435531.8125, -2854615.125, -3398475.375, -4500000.375, -4500000.375, -3979248.75, -2823855.5625, -2692574.8125, 4500000.0, 4500000.0, 4500000.0, 4500000.0, 4500000.0, -4500000.375, -4500000.375, -4500000.375, 0.044500003568828106, 0.9372500330209732, 0.39100001379847527, 192.0, 0.0, 0.0, 0.0, 0.0, 0.0, 0.0, 0.0, 0.0, 0.0, 1.6299356932071688E9, 2021-08-25 17:54:53.207
228.0, -2442072.5625, -2863122.1875, -3397312.125, -4500000.375, -4500000.375, -3977817.0, -2841363.9375, -2693226.75, 4500000.0, 4500000.0, 4500000.0, 4500000.0, 4500000.0, -4500000.375, -4500000.375, -4500000.375, 0.044500003568828106, 0.9372500330209732, 0.39100001379847527, 192.0, 0.0, 0.0, 0.0, 0.0, 0.0, 0.0, 0.0, 0.0, 0.0, 1.6299356932073565E9, 2021-08-25 17:54:53.207
230.0, -2435377.3125, -2854181.25, -3398566.875, -4500000.375, -4500000.375, -3979247.25, -2822782.125, -2692095.9375, 4500000.0, 4500000.0, 4500000.0, 4500000.0, 4500000.0, -4500000.375, -4500000.375, -4500000.375, 0.04325000336393714, 0.9336250498890877, 0.3915000166743994, 192.0, 0.5, 40.0, 14.5, 8.0, 6.0, 32.0, 0.0, 0.0, 0.0, 1.6299356932073631E9, 2021-08-25 17:54:53.207
232.0, -2442101.0625, -2863384.5, -3397061.625, -4500000.375, -4500000.375, -3977547.75, -2842167.0, -2693029.3125, 4500000.0, 4500000.0, 4500000.0, 4500000.0, 4500000.0, -4500000.375, -4500000.375, -4500000.375, 0.04325000336393714, 0.9336250498890877, 0.3915000166743994, 192.0, 0.0, 0.0, 0.0, 0.0, 0.0, 0.0, 0.0, 0.0, 0.0, 1.62993569320737E9, 2021-08-25 17:54:53.207
234.0, -2435442.75, -2853607.6875, -3398257.875, -4500000.375, -4500000.375, -3978967.875, -2822278.5, -2691749.8125, 4500000.0, 4500000.0, 4500000.0, 4500000.0, 4500000.0, -4500000.375, -4500000.375, -4500000.375, 0.04325000336393714, 0.9336250498890877, 0.3915000166743994, 192.0, 0.0, 0.0, 0.0, 0.0, 0.0, 0.0, 0.0, 0.0, 0.0, 1.6299356932073765E9, 2021-08-25 17:54:53.207
236.0, -2442165.375, -2863055.0625, -3396998.25, -4500000.375, -4500000.375, -3977684.25, -2842244.25, -2693262.0, 4500000.0, 4500000.0, 4500000.0, 4500000.0, 4500000.0, -4500000.375, -4500000.375, -4500000.375, 0.04325000336393714, 0.9336250498890877, 0.3915000166743994, 192.0, 0.0, 0.0, 0.0, 0.0, 0.0, 0.0, 0.0, 0.0, 0.0, 1.6299356932073832E9, 2021-08-25 17:54:53.207
238.0, -2436001.125, -2853599.25, -3398182.125, -4500000.375, -4500000.375, -3979266.0, -2822717.25, -2692054.5, 4500000.0, 4500000.0, 4500000.0, 4500000.0, 4500000.0, -4500000.375, -4500000.375, -4500000.375, 0.04325000336393714, 0.9336250498890877, 0.3915000166743994, 192.0, 0.0, 0.0, 0.0, 0.0, 0.0, 0.0, 0.0, 0.0, 0.0, 1.6299356932073898E9, 2021-08-25 17:54:53.207
240.0, -2442097.3125, -2862834.0, -3397272.375, -4500000.375, -4500000.375, -3978295.125, -2841920.25, -2693889.75, 4500000.0, 4500000.0, 4500000.0, 4500000.0, 4500000.0, -4500000.375, -4500000.375, -4500000.375, 0.0446250035893172, 0.9328125454485416, 0.3947500241920352, 192.0, 0.5, 56.0, 14.5, 16.0, 6.0, 56.0, 0.0, 0.0, 0.0, 1.6299356932073965E9, 2021-08-25 17:54:53.207
242.0, -2436714.75, -2854136.25, -3398375.25, -4500000.375, -4500000.375, -3979692.375, -2823946.875, -2692802.4375, 4500000.0, 4500000.0, 4500000.0, 4500000.0, 4500000.0, -4500000.375, -4500000.375, -4500000.375, 0.0446250035893172, 0.9328125454485416, 0.3947500241920352, 192.0, 0.0, 0.0, 0.0, 0.0, 0.0, 0.0, 0.0, 0.0, 0.0, 1.629935693207403E9, 2021-08-25 17:54:53.207
244.0, -2441549.0625, -2862392.0625, -3397450.5, -4500000.375, -4500000.375, -3978526.875, -2841067.3125, -2694255.0, 4500000.0, 4500000.0, 4500000.0, 4500000.0, 4500000.0, -4500000.375, -4500000.375, -4500000.375, 0.0446250035893172, 0.9328125454485416, 0.3947500241920352, 192.0, 0.0, 0.0, 0.0, 0.0, 0.0, 0.0, 0.0, 0.0, 0.0, 1.6299356932074096E9, 2021-08-25 17:54:53.207
246.0, -2437238.8125, -2854911.375, -3398324.625, -4500000.375, -4500000.375, -3979572.0, -2825298.75, -2692995.0, 4500000.0, 4500000.0, 4500000.0, 4500000.0, 4500000.0, -4500000.375, -4500000.375, -4500000.375, 0.0446250035893172, 0.9328125454485416, 0.3947500241920352, 192.0, 0.0, 0.0, 0.0, 0.0, 0.0, 0.0, 0.0, 0.0, 0.0, 1.6299356932074163E9, 2021-08-25 17:54:53.207
248.0, -2440912.875, -2861602.3125, -3397585.5, -4500000.375, -4500000.375, -3978501.75, -2839184.4375, -2694346.3125, 4500000.0, 4500000.0, 4500000.0, 4500000.0, 4500000.0, -4500000.375, -4500000.375, -4500000.375, 0.0446250035893172, 0.9328125454485416, 0.3947500241920352, 192.0, 0.0, 0.0, 0.0, 0.0, 0.0, 0.0, 0.0, 0.0, 0.0, 1.6299356932074313E9, 2021-08-25 17:54:53.207
250.0, -2438168.4375, -2855915.625, -3398215.875, -4500000.375, -4500000.375, -3979223.625, -2826938.625, -2693200.875, 4500000.0, 4500000.0, 4500000.0, 4500000.0, 4500000.0, -4500000.375, -4500000.375, -4500000.375, 0.05000000074505806, 0.9300000667572021, 0.398000031709671, 192.0, 0.5, 72.0, 14.5, 8.0, 6.0, 56.0, 0.0, 0.0, 0.0, 1.629935693207438E9, 2021-08-25 17:54:53.207
252.0, -2439667.875, -2860589.625, -3397288.5, -4500000.375, -4500000.375, -3977950.125, -2836666.875, -2693734.125, 4500000.0, 4500000.0, 4500000.0, 4500000.0, 4500000.0, -4500000.375, -4500000.375, -4500000.375, 0.05000000074505806, 0.9300000667572021, 0.398000031709671, 192.0, 0.0, 0.0, 0.0, 0.0, 0.0, 0.0, 0.0, 0.0, 0.0, 1.6299356932074447E9, 2021-08-25 17:54:53.207
254.0, -2438467.6875, -2856946.5, -3397711.5, -4500000.375, -4500000.375, -3978571.875, -2829031.6875, -2692817.4375, 4500000.0, 4500000.0, 4500000.0, 4500000.0, 4500000.0, -4500000.375, -4500000.375, -4500000.375, 0.05000000074505806, 0.9300000667572021, 0.398000031709671, 192.0, 0.0, 0.0, 0.0, 0.0, 0.0, 0.0, 0.0, 0.0, 0.0, 1.629935693207451E9, 2021-08-25 17:54:53.207
0.0, -2438997.1875, -2859479.625, -3397564.125, -4500000.375, -4500000.375, -3978280.125, -2834430.0, -2693512.125, 4500000.0, 4500000.0, 4500000.0, 4500000.0, 4500000.0, -4500000.375, -4500000.375, -4500000.375, 0.05000000074505806, 0.9300000667572021, 0.398000031709671, 192.0, 0.0, 0.0, 0.0, 0.0, 0.0, 0.0, 0.0, 0.0, 0.0, 1.629935693207458E9, 2021-08-25 17:54:53.207
2.0, -2439561.0, -2857888.125, -3397443.0, -4500000.375, -4500000.375, -3978375.75, -2831466.75, -2692896.1875, 4500000.0, 4500000.0, 4500000.0, 4500000.0, 4500000.0, -4500000.375, -4500000.375, -4500000.375, 0.05000000074505806, 0.9300000667572021, 0.398000031709671, 192.0, 0.0, 0.0, 0.0, 0.0, 0.0, 0.0, 0.0, 0.0, 0.0, 1.6299356932074645E9, 2021-08-25 17:54:53.207
4.0, -2438318.0625, -2858257.6875, -3397824.75, -4500000.375, -4500000.375, -3978776.25, -2832205.875, -2693622.5625, 4500000.0, 4500000.0, 4500000.0, 4500000.0, 4500000.0, -4500000.375, -4500000.375, -4500000.375, 0.04400000348687172, 0.9420000314712524, 0.398000031709671, 192.0, 0.5, 48.0, 14.5, 56.0, 6.0, 56.0, 0.0, 0.0, 0.0, 1.6299356932074711E9, 2021-08-25 17:54:53.207
6.0, -2440423.125, -2859276.9375, -3397354.5, -4500000.375, -4500000.375, -3978347.25, -2834334.0, -2693155.3125, 4500000.0, 4500000.0, 4500000.0, 4500000.0, 4500000.0, -4500000.375, -4500000.375, -4500000.375, 0.04400000348687172, 0.9420000314712524, 0.398000031709671, 192.0, 0.0, 0.0, 0.0, 0.0, 0.0, 0.0, 0.0, 0.0, 0.0, 1.6299356932074778E9, 2021-08-25 17:54:53.207
8.0, -2437210.3125, -2856903.1875, -3397895.25, -4500000.375, -4500000.375, -3978891.0, -2829773.625, -2693300.25, 4500000.0, 4500000.0, 4500000.0, 4500000.0, 4500000.0, -4500000.375, -4500000.375, -4500000.375, 0.04400000348687172, 0.9420000314712524, 0.398000031709671, 192.0, 0.0, 0.0, 0.0, 0.0, 0.0, 0.0, 0.0, 0.0, 0.0, 1.6299356932074845E9, 2021-08-25 17:54:53.207
10.0, -2440826.4375, -2860441.5, -3397493.25, -4500000.375, -4500000.375, -3978502.875, -2837117.625, -2693206.875, 4500000.0, 4500000.0, 4500000.0, 4500000.0, 4500000.0, -4500000.375, -4500000.375, -4500000.375, 0.04400000348687172, 0.9420000314712524, 0.398000031709671, 192.0, 0.0, 0.0, 0.0, 0.0, 0.0, 0.0, 0.0, 0.0, 0.0, 1.629935693207491E9, 2021-08-25 17:54:53.207
12.0, -2436302.625, -2856145.6875, -3398289.75, -4500000.375, -4500000.375, -3979136.625, -2827500.1875, -2692744.5, 4500000.0, 4500000.0, 4500000.0, 4500000.0, 4500000.0, -4500000.375, -4500000.375, -4500000.375, 0.04400000348687172, 0.9420000314712524, 0.398000031709671, 192.0, 0.0, 0.0, 0.0, 0.0, 0.0, 0.0, 0.0, 0.0, 0.0, 1.6299356932074976E9, 2021-08-25 17:54:53.207
14.0, -2441586.5625, -2861878.125, -3397574.25, -4500000.375, -4500000.375, -3978301.5, -2839307.25, -2693172.5625, 4500000.0, 4500000.0, 4500000.0, 4500000.0, 4500000.0, -4500000.375, -4500000.375, -4500000.375, 0.04200000315904617, 0.9420000314712524, 0.39400002360343933, 192.0, 0.5, 40.0, 14.5, 56.0, 6.0, 40.0, 0.0, 0.0, 0.0, 1.6299356932075043E9, 2021-08-25 17:54:53.207
16.0, -2435801.0625, -2855475.75, -3398490.375, -4500000.375, -4500000.375, -3979194.75, -2825480.4375, -2692241.8125, 4500000.0, 4500000.0, 4500000.0, 4500000.0, 4500000.0, -4500000.375, -4500000.375, -4500000.375, 0.04200000315904617, 0.9420000314712524, 0.39400002360343933, 192.0, 0.0, 0.0, 0.0, 0.0, 0.0, 0.0, 0.0, 0.0, 0.0, 1.6299356932075107E9, 2021-08-25 17:54:53.207
18.0, -2442102.1875, -2862720.375, -3397500.75, -4500000.375, -4500000.375, -3978261.75, -2840887.6875, -2693296.875, 4500000.0, 4500000.0, 4500000.0, 4500000.0, 4500000.0, -4500000.375, -4500000.375, -4500000.375, 0.04200000315904617, 0.9420000314712524, 0.39400002360343933, 192.0, 0.0, 0.0, 0.0, 0.0, 0.0, 0.0, 0.0, 0.0, 0.0, 1.6299356932075176E9, 2021-08-25 17:54:53.207
20.0, -2435890.6875, -2854618.875, -3398502.375, -4500000.375, -4500000.375, -3979402.5, -2823930.1875, -2692580.25, 4500000.0, 4500000.0, 4500000.0, 4500000.0, 4500000.0, -4500000.375, -4500000.375, -4500000.375, 0.04200000315904617, 0.9420000314712524, 0.39400002360343933, 192.0, 0.0, 0.0, 0.0, 0.0, 0.0, 0.0, 0.0, 0.0, 0.0, 1.629935693207524E9, 2021-08-25 17:54:53.207
22.0, -2442721.125, -2863203.1875, -3397243.875, -4500000.375, -4500000.375, -3977967.75, -2841855.375, -2693493.75, 4500000.0, 4500000.0, 4500000.0, 4500000.0, 4500000.0, -4500000.375, -4500000.375, -4500000.375, 0.04200000315904617, 0.9420000314712524, 0.39400002360343933, 192.0, 0.0, 0.0, 0.0, 0.0, 0.0, 0.0, 0.0, 0.0, 0.0, 1.6299356932075307E9, 2021-08-25 17:54:53.207
24.0, -2436140.0625, -2854193.0625, -3398623.5, -4500000.375, -4500000.375, -3979449.375, -2822900.25, -2692577.0625, 4500000.0, 4500000.0, 4500000.0, 4500000.0, 4500000.0, -4500000.375, -4500000.375, -4500000.375, 0.04400000348687172, 0.9420000314712524, 0.3880000114440918, 192.0, 0.5, 48.0, 14.5, 56.0, 6.0, 16.0, 0.0, 0.0, 0.0, 1.6299356932075372E9, 2021-08-25 17:54:53.207
26.0, -2442855.9375, -2863418.25, -3397309.875, -4500000.375, -4500000.375, -3977951.625, -2842693.875, -2693743.875, 4500000.0, 4500000.0, 4500000.0, 4500000.0, 4500000.0, -4500000.375, -4500000.375, -4500000.375, 0.04400000348687172, 0.9420000314712524, 0.3880000114440918, 192.0, 0.0, 0.0, 0.0, 0.0, 0.0, 0.0, 0.0, 0.0, 0.0, 1.629935693207546E9, 2021-08-25 17:54:53.207
28.0, -2436083.25, -2853903.9375, -3398640.375, -4500000.375, -4500000.375, -3979583.625, -2822979.0, -2692583.4375, 4500000.0, 4500000.0, 4500000.0, 4500000.0, 4500000.0, -4500000.375, -4500000.375, -4500000.375, 0.04400000348687172, 0.9420000314712524, 0.3880000114440918, 192.0, 0.0, 0.0, 0.0, 0.0, 0.0, 0.0, 0.0, 0.0, 0.0, 1.6299356932075527E9, 2021-08-25 17:54:53.207
30.0, -2442329.0625, -2863531.875, -3397393.875, -4500000.375, -4500000.375, -3978140.625, -2842905.75, -2693977.125, 4500000.0, 4500000.0, 4500000.0, 4500000.0, 4500000.0, -4500000.375, -4500000.375, -4500000.375, 0.04400000348687172, 0.9420000314712524, 0.3880000114440918, 192.0, 0.0, 0.0, 0.0, 0.0, 0.0, 0.0, 0.0, 0.0, 0.0, 1.629935693207559E9, 2021-08-25 17:54:53.207
32.0, -2435927.625, -2854083.0, -3398622.375, -4500000.375, -4500000.375, -3979638.375, -2823552.0, -2692647.375, 4500000.0, 4500000.0, 4500000.0, 4500000.0, 4500000.0, -4500000.375, -4500000.375, -4500000.375, 0.04500000365078449, 0.9420000314712524, 0.3880000114440918, 192.0, 0.5, 56.0, 14.5, 56.0, 6.0, 16.0, 0.0, 0.0, 0.0, 1.6299356932075658E9, 2021-08-25 17:54:53.207
34.0, -2441527.6875, -2863094.25, -3397429.5, -4500000.375, -4500000.375, -3978232.5, -2842279.125, -2693846.8125, 4500000.0, 4500000.0, 4500000.0, 4500000.0, 4500000.0, -4500000.375, -4500000.375, -4500000.375, 0.04500000365078449, 0.9420000314712524, 0.3880000114440918, 192.0, 0.0, 0.0, 0.0, 0.0, 0.0, 0.0, 0.0, 0.0, 0.0, 1.6299356932075725E9, 2021-08-25 17:54:53.207
36.0, -2436334.3125, -2854380.75, -3398339.25, -4500000.375, -4500000.375, -3979437.75, -2824280.4375, -2692389.75, 4500000.0, 4500000.0, 4500000.0, 4500000.0, 4500000.0, -4500000.375, -4500000.375, -4500000.375, 0.04500000365078449, 0.9420000314712524, 0.3880000114440918, 192.0, 0.0, 0.0, 0.0, 0.0, 0.0, 0.0, 0.0, 0.0, 0.0, 1.6299356932075791E9, 2021-08-25 17:54:53.207
38.0, -2441287.875, -2862426.9375, -3397476.0, -4500000.375, -4500000.375, -3978228.75, -2841021.1875, -2693710.5, 4500000.0, 4500000.0, 4500000.0, 4500000.0, 4500000.0, -4500000.375, -4500000.375, -4500000.375, 0.04500000365078449, 0.9420000314712524, 0.3880000114440918, 192.0, 0.0, 0.0, 0.0, 0.0, 0.0, 0.0, 0.0, 0.0, 0.0, 1.629935693207586E9, 2021-08-25 17:54:53.207
40.0, -2437342.3125, -2855340.5625, -3398220.0, -4500000.375, -4500000.375, -3979165.875, -2825876.4375, -2692430.0625, 4500000.0, 4500000.0, 4500000.0, 4500000.0, 4500000.0, -4500000.375, -4500000.375, -4500000.375, 0.04500000365078449, 0.9420000314712524, 0.3880000114440918, 192.0, 0.0, 0.0, 0.0, 0.0, 0.0, 0.0, 0.0, 0.0, 0.0, 1.6299356932075925E9, 2021-08-25 17:54:53.207
42.0, -2440592.0625, -2861792.8125, -3397631.625, -4500000.375, -4500000.375, -3978343.875, -2839115.25, -2693806.125, 4500000.0, 4500000.0, 4500000.0, 4500000.0, 4500000.0, -4500000.375, -4500000.375, -4500000.375, 0.04850000236183405, 0.9410000443458557, 0.3880000114440918, 192.0, 0.5, 80.0, 14.5, 48.0, 6.0, 16.0, 0.0, 0.0, 0.0, 1.629935693207599E9, 2021-08-25 17:54:53.207
44.0, -2438156.625, -2856174.5625, -3398126.25, -4500000.375, -4500000.375, -3979105.5, -2827723.875, -2692934.25, 4500000.0, 4500000.0, 4500000.0, 4500000.0, 4500000.0, -4500000.375, -4500000.375, -4500000.375, 0.04850000236183405, 0.9410000443458557, 0.3880000114440918, 192.0, 0.0, 0.0, 0.0, 0.0, 0.0, 0.0, 0.0, 0.0, 0.0, 1.6299356932076056E9, 2021-08-25 17:54:53.207
46.0, -2439839.4375, -2860590.1875, -3397683.375, -4500000.375, -4500000.375, -3978498.0, -2836739.8125, -2694160.6875, 4500000.0, 4500000.0, 4500000.0, 4500000.0, 4500000.0, -4500000.375, -4500000.375, -4500000.375, 0.04850000236183405, 0.9410000443458557, 0.3880000114440918, 192.0, 0.0, 0.0, 0.0, 0.0, 0.0, 0.0, 0.0, 0.0, 0.0, 1.6299356932076125E9, 2021-08-25 17:54:53.207
48.0, -2438952.75, -2857209.9375, -3397857.0, -4500000.375, -4500000.375, -3978742.875, -2829435.75, -2693269.6875, 4500000.0, 4500000.0, 4500000.0, 4500000.0, 4500000.0, -4500000.375, -4500000.375, -4500000.375, 0.04850000236183405, 0.9410000443458557, 0.3880000114440918, 192.0, 0.0, 0.0, 0.0, 0.0, 0.0, 0.0, 0.0, 0.0, 0.0, 1.629935693207619E9, 2021-08-25 17:54:53.207
50.0, -2438856.75, -2859741.0, -3397934.25, -4500000.375, -4500000.375, -3978693.75, -2834106.5625, -2693777.0625, 4500000.0, 4500000.0, 4500000.0, 4500000.0, 4500000.0, -4500000.375, -4500000.375, -4500000.375, 0.04850000236183405, 0.9410000443458557, 0.3880000114440918, 192.0, 0.0, 0.0, 0.0, 0.0, 0.0, 0.0, 0.0, 0.0, 0.0, 1.6299356932076256E9, 2021-08-25 17:54:53.207
52.0, -2439603.9375, -2859059.625, -3397969.5, -4500000.375, -4500000.375, -3978701.625, -2832345.9375, -2693081.25, 4500000.0, 4500000.0, 4500000.0, 4500000.0, 4500000.0, -4500000.375, -4500000.375, -4500000.375, 0.05025000171735883, 0.9375000298023224, 0.38600000739097595, 192.0, 0.5, 80.0, 14.5, 24.0, 6.0, 0.0, 0.0, 0.0, 0.0, 1.6299356932076323E9, 2021-08-25 17:54:53.207
54.0, -2437542.9375, -2858465.8125, -3397883.25, -4500000.375, -4500000.375, -3978559.125, -2831586.75, -2693012.625, 4500000.0, 4500000.0, 4500000.0, 4500000.0, 4500000.0, -4500000.375, -4500000.375, -4500000.375, 0.05025000171735883, 0.9375000298023224, 0.38600000739097595, 192.0, 0.0, 0.0, 0.0, 0.0, 0.0, 0.0, 0.0, 0.0, 0.0, 1.6299356932076387E9, 2021-08-25 17:54:53.207
56.0, -2439947.25, -2859939.9375, -3397480.875, -4500000.375, -4500000.375, -3978233.25, -2834733.5625, -2692550.25, 4500000.0, 4500000.0, 4500000.0, 4500000.0, 4500000.0, -4500000.375, -4500000.375, -4500000.375, 0.05025000171735883, 0.9375000298023224, 0.38600000739097595, 192.0, 0.0, 0.0, 0.0, 0.0, 0.0, 0.0, 0.0, 0.0, 0.0, 1.6299356932076457E9, 2021-08-25 17:54:53.207
58.0, -2436908.25, -2857089.75, -3397926.75, -4500000.375, -4500000.375, -3978580.125, -2828936.25, -2692768.5, 4500000.0, 4500000.0, 4500000.0, 4500000.0, 4500000.0, -4500000.375, -4500000.375, -4500000.375, 0.05025000171735883, 0.9375000298023224, 0.38600000739097595, 192.0, 0.0, 0.0, 0.0, 0.0, 0.0, 0.0, 0.0, 0.0, 0.0, 1.629935693207652E9, 2021-08-25 17:54:53.207
60.0, -2441457.375, -2861012.25, -3397412.25, -4500000.375, -4500000.375, -3977989.5, -2836839.1875, -2693153.25, 4500000.0, 4500000.0, 4500000.0, 4500000.0, 4500000.0, -4500000.375, -4500000.375, -4500000.375, 0.05025000171735883, 0.9375000298023224, 0.38600000739097595, 192.0, 0.0, 0.0, 0.0, 0.0, 0.0, 0.0, 0.0, 0.0, 0.0, 1.6299356932076604E9, 2021-08-25 17:54:53.207
62.0, -2436849.375, -2855935.3125, -3398094.0, -4500000.375, -4500000.375, -3978728.625, -2826435.9375, -2692825.875, 4500000.0, 4500000.0, 4500000.0, 4500000.0, 4500000.0, -4500000.375, -4500000.375, -4500000.375, 0.047125002602115273, 0.9367500394582748, 0.3880000114440918, 192.0, 0.5, 48.0, 14.5, 32.0, 6.0, 24.0, 0.0, 0.0, 0.0, 1.629935693207667E9, 2021-08-25 17:54:53.207
64.0, -2441935.875, -2861779.3125, -3397071.75, -4500000.375, -4500000.375, -3977796.75, -2838903.9375, -2693021.25, 4500000.0, 4500000.0, 4500000.0, 4500000.0, 4500000.0, -4500000.375, -4500000.375, -4500000.375, 0.047125002602115273, 0.9367500394582748, 0.3880000114440918, 192.0, 0.0, 0.0, 0.0, 0.0, 0.0, 0.0, 0.0, 0.0, 0.0, 1.6299356932076735E9, 2021-08-25 17:54:53.207
66.0, -2435898.75, -2855054.0625, -3398185.125, -4500000.375, -4500000.375, -3979021.5, -2824769.25, -2692431.1875, 4500000.0, 4500000.0, 4500000.0, 4500000.0, 4500000.0, -4500000.375, -4500000.375, -4500000.375, 0.047125002602115273, 0.9367500394582748, 0.3880000114440918, 192.0, 0.0, 0.0, 0.0, 0.0, 0.0, 0.0, 0.0, 0.0, 0.0, 1.6299356932076805E9, 2021-08-25 17:54:53.207
68.0, -2442027.5625, -2862685.5, -3397132.875, -4500000.375, -4500000.375, -3977903.625, -2840857.125, -2693394.0, 4500000.0, 4500000.0, 4500000.0, 4500000.0, 4500000.0, -4500000.375, -4500000.375, -4500000.375, 0.047125002602115273, 0.9367500394582748, 0.3880000114440918, 192.0, 0.0, 0.0, 0.0, 0.0, 0.0, 0.0, 0.0, 0.0, 0.0, 1.629935693207687E9, 2021-08-25 17:54:53.207
70.0, -2435578.5, -2854302.0, -3398271.75, -4500000.375, -4500000.375, -3979183.5, -2823430.6875, -2692624.875, 4500000.0, 4500000.0, 4500000.0, 4500000.0, 4500000.0, -4500000.375, -4500000.375, -4500000.375, 0.047125002602115273, 0.9367500394582748, 0.3880000114440918, 192.0, 0.0, 0.0, 0.0, 0.0, 0.0, 0.0, 0.0, 0.0, 0.0, 1.6299356932076936E9, 2021-08-25 17:54:53.207
72.0, -2442204.0, -2863137.75, -3396886.5, -4500000.375, -4500000.375, -3977603.625, -2841774.9375, -2693752.3125, 4500000.0, 4500000.0, 4500000.0, 4500000.0, 4500000.0, -4500000.375, -4500000.375, -4500000.375, 0.04356250271666795, 0.9373750314116478, 0.3880000114440918, 192.0, 0.5, 32.0, 14.5, 40.0, 6.0, 16.0, 0.0, 0.0, 0.0, 1.6299356932077017E9, 2021-08-25 17:54:53.207
74.0, -2435584.875, -2853826.125, -3398176.875, -4500000.375, -4500000.375, -3979063.125, -2822618.625, -2692768.5, 4500000.0, 4500000.0, 4500000.0, 4500000.0, 4500000.0, -4500000.375, -4500000.375, -4500000.375, 0.04356250271666795, 0.9373750314116478, 0.3880000114440918, 192.0, 0.0, 0.0, 0.0, 0.0, 0.0, 0.0, 0.0, 0.0, 0.0, 1.6299356932077084E9, 2021-08-25 17:54:53.207
76.0, -2442459.9375, -2863390.875, -3397117.875, -4500000.375, -4500000.375, -3977805.75, -2842425.5625, -2694173.4375, 4500000.0, 4500000.0, 4500000.0, 4500000.0, 4500000.0, -4500000.375, -4500000.375, -4500000.375, 0.04356250271666795, 0.9373750314116478, 0.3880000114440918, 192.0, 0.0, 0.0, 0.0, 0.0, 0.0, 0.0, 0.0, 0.0, 0.0, 1.6299356932077153E9, 2021-08-25 17:54:53.207
78.0, -2435930.4375, -2853970.875, -3398415.375, -4500000.375, -4500000.375, -3979270.875, -2822758.125, -2692799.625, 4500000.0, 4500000.0, 4500000.0, 4500000.0, 4500000.0, -4500000.375, -4500000.375, -4500000.375, 0.04356250271666795, 0.9373750314116478, 0.3880000114440918, 192.0, 0.0, 0.0, 0.0, 0.0, 0.0, 0.0, 0.0, 0.0, 0.0, 1.6299356932077217E9, 2021-08-25 17:54:53.207
80.0, -2442269.0625, -2863458.375, -3397149.0, -4500000.375, -4500000.375, -3977652.375, -2842290.9375, -2693905.875, 4500000.0, 4500000.0, 4500000.0, 4500000.0, 4500000.0, -4500000.375, -4500000.375, -4500000.375, 0.04356250271666795, 0.9373750314116478, 0.3880000114440918, 192.0, 0.0, 0.0, 0.0, 0.0, 0.0, 0.0, 0.0, 0.0, 0.0, 1.6299356932077284E9, 2021-08-25 17:54:53.207
