%OpenBCI Raw EEG Data
%Number of channels = 16
%Sample Rate = 125 Hz
%Board = OpenBCI_GUI$BoardCytonSerialDaisy
Sample Index, EXG Channel 0, EXG Channel 1, EXG Channel 2, EXG Channel 3, EXG Channel 4, EXG Channel 5, EXG Channel 6, EXG Channel 7, EXG Channel 8, EXG Channel 9, EXG Channel 10, EXG Channel 11, EXG Channel 12, EXG Channel 13, EXG Channel 14, EXG Channel 15, Accel Channel 0, Accel Channel 1, Accel Channel 2, Other, Other, Other, Other, Other, Other, Other, Analog Channel 0, Analog Channel 1, Analog Channel 2, Timestamp, Timestamp (Formatted)
0.0, -583572.5625, 2249999.625, -1436799.9375, 2249999.625, 2249999.625, -691211.203125, 2249999.625, -1120920.46875, -2250000.1875, -2250000.1875, -2250000.1875, -2250000.1875, -2250000.1875, -2250000.1875, -2250000.1875, -2250000.1875, 0.0560000017285347, 0.9420000314712524, 0.36400002241134644, 192.0, 0.5, 96.0, 14.5, 56.0, 5.5, 48.0, 0.0, 0.0, 0.0, 1.6292690133355832E9, 2021-08-18 00:43:33.335
2.0, -1167593.53125, 4500000.0, -2872758.75, 4500000.0, 4500000.0, -1366432.6875, 4500000.0, -2237014.5, 4500000.0, 4500000.0, 4500000.0, 4500000.0, 4500000.0, 4500000.0, 4500000.0, 4500000.0, 0.0560000017285347, 0.9420000314712524, 0.36400002241134644, 192.0, 0.0, 0.0, 0.0, 0.0, 0.0, 0.0, 0.0, 0.0, 0.0, 1.629269013335592E9, 2021-08-18 00:43:33.335
4.0, -1154719.5, 4500000.0, -2875524.1875, 4500000.0, 4500000.0, -1360933.6875, 4500000.0, -2236489.875, 4500000.0, 4500000.0, 4500000.0, 4500000.0, 4500000.0, 4500000.0, 4500000.0, 4500000.0, 0.0560000017285347, 0.9420000314712524, 0.36400002241134644, 192.0, 0.0, 0.0, 0.0, 0.0, 0.0, 0.0, 0.0, 0.0, 0.0, 1.6292690133355992E9, 2021-08-18 00:43:33.335
6.0, -1170712.40625, 4500000.0, -2871737.4375, 4500000.0, 4500000.0, -1370790.28125, 4500000.0, -2239302.0, 4500000.0, 4500000.0, 4500000.0, 4500000.0, 4500000.0, 4500000.0, 4500000.0, 4500000.0, 0.03300000121816993, 0.9350000321865082, 0.38600002229213715, 192.0, 0.0, 40.0, 14.5, 0.0, 6.0, 96.0, 0.0, 0.0, 0.0, 1.629269013335606E9, 2021-08-18 00:43:33.335
8.0, -1152428.34375, 4500000.0, -2874957.5625, 4500000.0, 4500000.0, -1355702.25, 4500000.0, -2234801.25, 4500000.0, 4500000.0, 4500000.0, 4500000.0, 4500000.0, 4500000.0, 4500000.0, 4500000.0, 0.03300000121816993, 0.9350000321865082, 0.38600002229213715, 192.0, 0.0, 0.0, 0.0, 0.0, 0.0, 0.0, 0.0, 0.0, 0.0, 1.6292690133356133E9, 2021-08-18 00:43:33.335
10.0, -1173209.0625, 4500000.0, -2873185.6875, 4500000.0, 4500000.0, -1375926.65625, 4500000.0, -2241086.625, 4500000.0, 4500000.0, 4500000.0, 4500000.0, 4500000.0, 4500000.0, 4500000.0, 4500000.0, 0.03300000121816993, 0.9350000321865082, 0.38600002229213715, 192.0, 0.0, 0.0, 0.0, 0.0, 0.0, 0.0, 0.0, 0.0, 0.0, 1.6292690133356333E9, 2021-08-18 00:43:33.335
12.0, -1151382.28125, 4500000.0, -2876037.9375, 4500000.0, 4500000.0, -1352524.40625, 4500000.0, -2234674.125, 4500000.0, 4500000.0, 4500000.0, 4500000.0, 4500000.0, 4500000.0, 4500000.0, 4500000.0, 0.03300000121816993, 0.9350000321865082, 0.38600002229213715, 192.0, 0.0, 0.0, 0.0, 0.0, 0.0, 0.0, 0.0, 0.0, 0.0, 1.62926901333564E9, 2021-08-18 00:43:33.335
14.0, -1175021.71875, 4500000.0, -2873952.375, 4500000.0, 4500000.0, -1379736.46875, 4500000.0, -2243313.375, 4500000.0, 4500000.0, 4500000.0, 4500000.0, 4500000.0, 4500000.0, 4500000.0, 4500000.0, 0.03300000121816993, 0.9350000321865082, 0.38600002229213715, 192.0, 0.0, 0.0, 0.0, 0.0, 0.0, 0.0, 0.0, 0.0, 0.0, 1.6292690133356464E9, 2021-08-18 00:43:33.335
16.0, -1151439.65625, 4500000.0, -2876989.6875, 4500000.0, 4500000.0, -1350124.3125, 4500000.0, -2234565.1875, 4500000.0, 4500000.0, 4500000.0, 4500000.0, 4500000.0, 4500000.0, 4500000.0, 4500000.0, 0.0105000005569309, 0.9285000413656235, 0.40800001472234726, 192.0, 127.5, 80.0, 14.0, 104.0, 6.5, 56.0, 0.0, 0.0, 0.0, 1.6292690133356533E9, 2021-08-18 00:43:33.335
18.0, -1176433.03125, 4500000.0, -2875257.0, 4500000.0, 4500000.0, -1383397.125, 4500000.0, -2244886.875, 4500000.0, 4500000.0, 4500000.0, 4500000.0, 4500000.0, 4500000.0, 4500000.0, 4500000.0, 0.0105000005569309, 0.9285000413656235, 0.40800001472234726, 192.0, 0.0, 0.0, 0.0, 0.0, 0.0, 0.0, 0.0, 0.0, 0.0, 1.62926901333566E9, 2021-08-18 00:43:33.335
20.0, -1151776.59375, 4500000.0, -2877770.25, 4500000.0, 4500000.0, -1348725.28125, 4500000.0, -2234620.875, 4500000.0, 4500000.0, 4500000.0, 4500000.0, 4500000.0, 4500000.0, 4500000.0, 4500000.0, 0.0105000005569309, 0.9285000413656235, 0.40800001472234726, 192.0, 0.0, 0.0, 0.0, 0.0, 0.0, 0.0, 0.0, 0.0, 0.0, 1.6292690133356664E9, 2021-08-18 00:43:33.335
22.0, -1175793.09375, 4500000.0, -2875991.4375, 4500000.0, 4500000.0, -1384636.3125, 4500000.0, -2245862.625, 4500000.0, 4500000.0, 4500000.0, 4500000.0, 4500000.0, 4500000.0, 4500000.0, 4500000.0, 0.0105000005569309, 0.9285000413656235, 0.40800001472234726, 192.0, 0.0, 0.0, 0.0, 0.0, 0.0, 0.0, 0.0, 0.0, 0.0, 1.629269013335673E9, 2021-08-18 00:43:33.335
24.0, -1152900.46875, 4500000.0, -2877098.0625, 4500000.0, 4500000.0, -1348060.6875, 4500000.0, -2234735.8125, 4500000.0, 4500000.0, 4500000.0, 4500000.0, 4500000.0, 4500000.0, 4500000.0, 4500000.0, 0.0105000005569309, 0.9285000413656235, 0.40800001472234726, 192.0, 0.0, 0.0, 0.0, 0.0, 0.0, 0.0, 0.0, 0.0, 0.0, 1.62926901333568E9, 2021-08-18 00:43:33.335
26.0, -1175392.875, 4500000.0, -2875230.1875, 4500000.0, 4500000.0, -1385587.40625, 4500000.0, -2246698.875, 4500000.0, 4500000.0, 4500000.0, 4500000.0, 4500000.0, 4500000.0, 4500000.0, 4500000.0, -0.0037500002654269338, 0.9202500507235527, 0.4260000251233578, 192.0, 127.5, 56.0, 14.0, 64.0, 6.5, 112.0, 0.0, 0.0, 0.0, 1.6292690133356864E9, 2021-08-18 00:43:33.335
28.0, -1154426.625, 4500000.0, -2876232.1875, 4500000.0, 4500000.0, -1348672.21875, 4500000.0, -2235326.4375, 4500000.0, 4500000.0, 4500000.0, 4500000.0, 4500000.0, 4500000.0, 4500000.0, 4500000.0, -0.0037500002654269338, 0.9202500507235527, 0.4260000251233578, 192.0, 0.0, 0.0, 0.0, 0.0, 0.0, 0.0, 0.0, 0.0, 0.0, 1.6292690133356931E9, 2021-08-18 00:43:33.335
30.0, -1173601.21875, 4500000.0, -2875632.0, 4500000.0, 4500000.0, -1384823.53125, 4500000.0, -2246913.0, 4500000.0, 4500000.0, 4500000.0, 4500000.0, 4500000.0, 4500000.0, 4500000.0, 4500000.0, -0.0037500002654269338, 0.9202500507235527, 0.4260000251233578, 192.0, 0.0, 0.0, 0.0, 0.0, 0.0, 0.0, 0.0, 0.0, 0.0, 1.6292690133356998E9, 2021-08-18 00:43:33.335
32.0, -1156560.0, 4500000.0, -2875847.625, 4500000.0, 4500000.0, -1350357.1875, 4500000.0, -2236616.4375, 4500000.0, 4500000.0, 4500000.0, 4500000.0, 4500000.0, 4500000.0, 4500000.0, 4500000.0, -0.0037500002654269338, 0.9202500507235527, 0.4260000251233578, 192.0, 0.0, 0.0, 0.0, 0.0, 0.0, 0.0, 0.0, 0.0, 0.0, 1.6292690133357065E9, 2021-08-18 00:43:33.335
34.0, -1170997.3125, 4500000.0, -2875023.5625, 4500000.0, 4500000.0, -1382373.09375, 4500000.0, -2246384.625, 4500000.0, 4500000.0, 4500000.0, 4500000.0, 4500000.0, 4500000.0, 4500000.0, 4500000.0, -0.0037500002654269338, 0.9202500507235527, 0.4260000251233578, 192.0, 0.0, 0.0, 0.0, 0.0, 0.0, 0.0, 0.0, 0.0, 0.0, 1.6292690133357203E9, 2021-08-18 00:43:33.335
36.0, -1159333.40625, 4500000.0, -2875286.4375, 4500000.0, 4500000.0, -1353140.71875, 4500000.0, -2237457.1875, 4500000.0, 4500000.0, 4500000.0, 4500000.0, 4500000.0, 4500000.0, 4500000.0, 4500000.0, -0.01587500056484714, 0.9151250384747982, 0.4380000215023756, 192.0, 127.5, 16.0, 14.0, 56.0, 7.0, 8.0, 0.0, 0.0, 0.0, 1.6292690133357272E9, 2021-08-18 00:43:33.335
38.0, -1168883.15625, 4500000.0, -2876817.9375, 4500000.0, 4500000.0, -1380468.75, 4500000.0, -2246583.5625, 4500000.0, 4500000.0, 4500000.0, 4500000.0, 4500000.0, 4500000.0, 4500000.0, 4500000.0, -0.01587500056484714, 0.9151250384747982, 0.4380000215023756, 192.0, 0.0, 0.0, 0.0, 0.0, 0.0, 0.0, 0.0, 0.0, 0.0, 1.6292690133357337E9, 2021-08-18 00:43:33.335
40.0, -1162636.875, 4500000.0, -2875715.625, 4500000.0, 4500000.0, -1356940.40625, 4500000.0, -2239097.0625, 4500000.0, 4500000.0, 4500000.0, 4500000.0, 4500000.0, 4500000.0, 4500000.0, 4500000.0, -0.01587500056484714, 0.9151250384747982, 0.4380000215023756, 192.0, 0.0, 0.0, 0.0, 0.0, 0.0, 0.0, 0.0, 0.0, 0.0, 1.6292690133357403E9, 2021-08-18 00:43:33.335
42.0, -1165275.09375, 4500000.0, -2877799.125, 4500000.0, 4500000.0, -1376139.65625, 4500000.0, -2245127.0625, 4500000.0, 4500000.0, 4500000.0, 4500000.0, 4500000.0, 4500000.0, 4500000.0, 4500000.0, -0.01587500056484714, 0.9151250384747982, 0.4380000215023756, 192.0, 0.0, 0.0, 0.0, 0.0, 0.0, 0.0, 0.0, 0.0, 0.0, 1.6292690133357472E9, 2021-08-18 00:43:33.335
44.0, -1165794.84375, 4500000.0, -2877544.875, 4500000.0, 4500000.0, -1361384.25, 4500000.0, -2240295.9375, 4500000.0, 4500000.0, 4500000.0, 4500000.0, 4500000.0, 4500000.0, 4500000.0, 4500000.0, -0.01587500056484714, 0.9151250384747982, 0.4380000215023756, 192.0, 0.0, 0.0, 0.0, 0.0, 0.0, 0.0, 0.0, 0.0, 0.0, 1.629269013335754E9, 2021-08-18 00:43:33.335
46.0, -1162710.84375, 4500000.0, -2879916.9375, 4500000.0, 4500000.0, -1371952.6875, 4500000.0, -2244080.0625, 4500000.0, 4500000.0, 4500000.0, 4500000.0, 4500000.0, 4500000.0, 4500000.0, 4500000.0, -0.02393750104238279, 0.9105625282973051, 0.4480000277981162, 192.0, 127.5, 0.0, 14.0, 40.0, 7.0, 40.0, 0.0, 0.0, 0.0, 1.6292690133357604E9, 2021-08-18 00:43:33.335
48.0, -1168971.65625, 4500000.0, -2877586.6875, 4500000.0, 4500000.0, -1365874.78125, 4500000.0, -2241168.75, 4500000.0, 4500000.0, 4500000.0, 4500000.0, 4500000.0, 4500000.0, 4500000.0, 4500000.0, -0.02393750104238279, 0.9105625282973051, 0.4480000277981162, 192.0, 0.0, 0.0, 0.0, 0.0, 0.0, 0.0, 0.0, 0.0, 0.0, 1.629269013335767E9, 2021-08-18 00:43:33.335
50.0, -1159198.21875, 4500000.0, -2879739.375, 4500000.0, 4500000.0, -1366904.25, 4500000.0, -2241197.625, 4500000.0, 4500000.0, 4500000.0, 4500000.0, 4500000.0, 4500000.0, 4500000.0, 4500000.0, -0.02393750104238279, 0.9105625282973051, 0.4480000277981162, 192.0, 0.0, 0.0, 0.0, 0.0, 0.0, 0.0, 0.0, 0.0, 0.0, 1.6292690133357737E9, 2021-08-18 00:43:33.335
52.0, -1171140.0, 4500000.0, -2877688.125, 4500000.0, 4500000.0, -1370538.65625, 4500000.0, -2241994.3125, 4500000.0, 4500000.0, 4500000.0, 4500000.0, 4500000.0, 4500000.0, 4500000.0, 4500000.0, -0.02393750104238279, 0.9105625282973051, 0.4480000277981162, 192.0, 0.0, 0.0, 0.0, 0.0, 0.0, 0.0, 0.0, 0.0, 0.0, 1.6292690133357804E9, 2021-08-18 00:43:33.335
54.0, -1156756.875, 4500000.0, -2880428.8125, 4500000.0, 4500000.0, -1363025.25, 4500000.0, -2240877.0, 4500000.0, 4500000.0, 4500000.0, 4500000.0, 4500000.0, 4500000.0, 4500000.0, 4500000.0, -0.02393750104238279, 0.9105625282973051, 0.4480000277981162, 192.0, 0.0, 0.0, 0.0, 0.0, 0.0, 0.0, 0.0, 0.0, 0.0, 1.629269013335787E9, 2021-08-18 00:43:33.335
56.0, -1174075.40625, 4500000.0, -2875653.9375, 4500000.0, 4500000.0, -1376682.46875, 4500000.0, -2245556.25, 4500000.0, 4500000.0, 4500000.0, 4500000.0, 4500000.0, 4500000.0, 4500000.0, 4500000.0, -0.04000000283122063, 0.9020000696182251, 0.45600003004074097, 192.0, 127.0, 96.0, 14.0, 24.0, 7.0, 32.0, 0.0, 0.0, 0.0, 1.6292690133357935E9, 2021-08-18 00:43:33.335
58.0, -1154996.8125, 4500000.0, -2877493.875, 4500000.0, 4500000.0, -1359647.8125, 4500000.0, -2241745.875, 4500000.0, 4500000.0, 4500000.0, 4500000.0, 4500000.0, 4500000.0, 4500000.0, 4500000.0, -0.04000000283122063, 0.9020000696182251, 0.45600003004074097, 192.0, 0.0, 0.0, 0.0, 0.0, 0.0, 0.0, 0.0, 0.0, 0.0, 1.6292690133358004E9, 2021-08-18 00:43:33.335
60.0, -1174924.03125, 4500000.0, -2873368.125, 4500000.0, 4500000.0, -1380050.8125, 4500000.0, -2246875.875, 4500000.0, 4500000.0, 4500000.0, 4500000.0, 4500000.0, 4500000.0, 4500000.0, 4500000.0, -0.04000000283122063, 0.9020000696182251, 0.45600003004074097, 192.0, 0.0, 0.0, 0.0, 0.0, 0.0, 0.0, 0.0, 0.0, 0.0, 1.629269013335807E9, 2021-08-18 00:43:33.335
62.0, -1152637.03125, 4500000.0, -2876286.375, 4500000.0, 4500000.0, -1355568.65625, 4500000.0, -2239287.0, 4500000.0, 4500000.0, 4500000.0, 4500000.0, 4500000.0, 4500000.0, 4500000.0, 4500000.0, -0.04000000283122063, 0.9020000696182251, 0.45600003004074097, 192.0, 0.0, 0.0, 0.0, 0.0, 0.0, 0.0, 0.0, 0.0, 0.0, 1.6292690133358135E9, 2021-08-18 00:43:33.335
64.0, -1176199.21875, 4500000.0, -2874095.625, 4500000.0, 4500000.0, -1384217.90625, 4500000.0, -2248506.75, 4500000.0, 4500000.0, 4500000.0, 4500000.0, 4500000.0, 4500000.0, 4500000.0, 4500000.0, -0.04000000283122063, 0.9020000696182251, 0.45600003004074097, 192.0, 0.0, 0.0, 0.0, 0.0, 0.0, 0.0, 0.0, 0.0, 0.0, 1.6292690133358204E9, 2021-08-18 00:43:33.335
66.0, -1152016.875, 4500000.0, -2875625.4375, 4500000.0, 4500000.0, -1353402.5625, 4500000.0, -2239231.125, 4500000.0, 4500000.0, 4500000.0, 4500000.0, 4500000.0, 4500000.0, 4500000.0, 4500000.0, -0.03800000250339508, 0.906000018119812, 0.4580000340938568, 192.0, 127.0, 104.0, 14.0, 40.0, 7.0, 40.0, 0.0, 0.0, 0.0, 1.6292690133358269E9, 2021-08-18 00:43:33.335
68.0, -1176161.0625, 4500000.0, -2873568.1875, 4500000.0, 4500000.0, -1386506.34375, 4500000.0, -2249291.625, 4500000.0, 4500000.0, 4500000.0, 4500000.0, 4500000.0, 4500000.0, 4500000.0, 4500000.0, -0.03800000250339508, 0.906000018119812, 0.4580000340938568, 192.0, 0.0, 0.0, 0.0, 0.0, 0.0, 0.0, 0.0, 0.0, 0.0, 1.6292690133358357E9, 2021-08-18 00:43:33.335
70.0, -1152065.15625, 4500000.0, -2875598.625, 4500000.0, 4500000.0, -1352067.375, 4500000.0, -2238819.1875, 4500000.0, 4500000.0, 4500000.0, 4500000.0, 4500000.0, 4500000.0, 4500000.0, 4500000.0, -0.03800000250339508, 0.906000018119812, 0.4580000340938568, 192.0, 0.0, 0.0, 0.0, 0.0, 0.0, 0.0, 0.0, 0.0, 0.0, 1.6292690133358421E9, 2021-08-18 00:43:33.335
72.0, -1175513.625, 4500000.0, -2873641.125, 4500000.0, 4500000.0, -1388257.3125, 4500000.0, -2250021.1875, 4500000.0, 4500000.0, 4500000.0, 4500000.0, 4500000.0, 4500000.0, 4500000.0, 4500000.0, -0.03800000250339508, 0.906000018119812, 0.4580000340938568, 192.0, 0.0, 0.0, 0.0, 0.0, 0.0, 0.0, 0.0, 0.0, 0.0, 1.6292690133358488E9, 2021-08-18 00:43:33.335
74.0, -1152878.4375, 4500000.0, -2875570.3125, 4500000.0, 4500000.0, -1352260.96875, 4500000.0, -2239080.9375, 4500000.0, 4500000.0, 4500000.0, 4500000.0, 4500000.0, 4500000.0, 4500000.0, 4500000.0, -0.03800000250339508, 0.906000018119812, 0.4580000340938568, 192.0, 0.0, 0.0, 0.0, 0.0, 0.0, 0.0, 0.0, 0.0, 0.0, 1.6292690133358555E9, 2021-08-18 00:43:33.335
76.0, -1173740.15625, 4500000.0, -2873618.0625, 4500000.0, 4500000.0, -1388640.375, 4500000.0, -2250045.1875, 4500000.0, 4500000.0, 4500000.0, 4500000.0, 4500000.0, 4500000.0, 4500000.0, 4500000.0, -0.03200000151991844, 0.9100000262260437, 0.45600003004074097, 192.0, 127.5, 0.0, 14.0, 56.0, 7.0, 32.0, 0.0, 0.0, 0.0, 1.6292690133358622E9, 2021-08-18 00:43:33.335
78.0, -1154678.71875, 4500000.0, -2875130.4375, 4500000.0, 4500000.0, -1353743.71875, 4500000.0, -2239521.9375, 4500000.0, 4500000.0, 4500000.0, 4500000.0, 4500000.0, 4500000.0, 4500000.0, 4500000.0, -0.03200000151991844, 0.9100000262260437, 0.45600003004074097, 192.0, 0.0, 0.0, 0.0, 0.0, 0.0, 0.0, 0.0, 0.0, 0.0, 1.6292690133358696E9, 2021-08-18 00:43:33.335
80.0, -1171785.84375, 4500000.0, -2873687.8125, 4500000.0, 4500000.0, -1387752.5625, 4500000.0, -2250047.4375, 4500000.0, 4500000.0, 4500000.0, 4500000.0, 4500000.0, 4500000.0, 4500000.0, 4500000.0, -0.03200000151991844, 0.9100000262260437, 0.45600003004074097, 192.0, 0.0, 0.0, 0.0, 0.0, 0.0, 0.0, 0.0, 0.0, 0.0, 1.6292690133358765E9, 2021-08-18 00:43:33.335
82.0, -1155811.125, 4500000.0, -2872920.75, 4500000.0, 4500000.0, -1354272.09375, 4500000.0, -2239093.3125, 4500000.0, 4500000.0, 4500000.0, 4500000.0, 4500000.0, 4500000.0, 4500000.0, 4500000.0, -0.03200000151991844, 0.9100000262260437, 0.45600003004074097, 192.0, 0.0, 0.0, 0.0, 0.0, 0.0, 0.0, 0.0, 0.0, 0.0, 1.629269013335883E9, 2021-08-18 00:43:33.335
84.0, -1169434.125, 4500000.0, -2874105.1875, 4500000.0, 4500000.0, -1385608.875, 4500000.0, -2249308.6875, 4500000.0, 4500000.0, 4500000.0, 4500000.0, 4500000.0, 4500000.0, 4500000.0, 4500000.0, -0.03200000151991844, 0.9100000262260437, 0.45600003004074097, 192.0, 0.0, 0.0, 0.0, 0.0, 0.0, 0.0, 0.0, 0.0, 0.0, 1.6292690133358896E9, 2021-08-18 00:43:33.335
86.0, -1159316.8125, 4500000.0, -2873084.8125, 4500000.0, 4500000.0, -1357897.40625, 4500000.0, -2240439.75, 4500000.0, 4500000.0, 4500000.0, 4500000.0, 4500000.0, 4500000.0, 4500000.0, 4500000.0, -0.03800000250339508, 0.9120000600814819, 0.4540000259876251, 192.0, 127.0, 104.0, 14.0, 64.0, 7.0, 24.0, 0.0, 0.0, 0.0, 1.6292690133358963E9, 2021-08-18 00:43:33.335
88.0, -1166949.28125, 4500000.0, -2873912.0625, 4500000.0, 4500000.0, -1382453.53125, 4500000.0, -2247987.9375, 4500000.0, 4500000.0, 4500000.0, 4500000.0, 4500000.0, 4500000.0, 4500000.0, 4500000.0, -0.03800000250339508, 0.9120000600814819, 0.4540000259876251, 192.0, 0.0, 0.0, 0.0, 0.0, 0.0, 0.0, 0.0, 0.0, 0.0, 1.6292690133359027E9, 2021-08-18 00:43:33.335
90.0, -1162679.8125, 4500000.0, -2872273.875, 4500000.0, 4500000.0, -1361599.875, 4500000.0, -2241191.25, 4500000.0, 4500000.0, 4500000.0, 4500000.0, 4500000.0, 4500000.0, 4500000.0, 4500000.0, -0.03800000250339508, 0.9120000600814819, 0.4540000259876251, 192.0, 0.0, 0.0, 0.0, 0.0, 0.0, 0.0, 0.0, 0.0, 0.0, 1.6292690133359094E9, 2021-08-18 00:43:33.335
92.0, -1165031.53125, 4500000.0, -2875118.625, 4500000.0, 4500000.0, -1380090.5625, 4500000.0, -2247730.5, 4500000.0, 4500000.0, 4500000.0, 4500000.0, 4500000.0, 4500000.0, 4500000.0, 4500000.0, -0.03800000250339508, 0.9120000600814819, 0.4540000259876251, 192.0, 0.0, 0.0, 0.0, 0.0, 0.0, 0.0, 0.0, 0.0, 0.0, 1.629269013335916E9, 2021-08-18 00:43:33.335
94.0, -1166314.125, 4500000.0, -2872284.0, 4500000.0, 4500000.0, -1367367.75, 4500000.0, -2242373.625, 4500000.0, 4500000.0, 4500000.0, 4500000.0, 4500000.0, 4500000.0, 4500000.0, 4500000.0, -0.03800000250339508, 0.9120000600814819, 0.4540000259876251, 192.0, 0.0, 0.0, 0.0, 0.0, 0.0, 0.0, 0.0, 0.0, 0.0, 1.6292690133359227E9, 2021-08-18 00:43:33.335
96.0, -1160679.9375, 4500000.0, -2873932.5, 4500000.0, 4500000.0, -1375231.96875, 4500000.0, -2244636.375, 4500000.0, 4500000.0, 4500000.0, 4500000.0, 4500000.0, 4500000.0, 4500000.0, 4500000.0, -0.04200000315904617, 0.9120000600814819, 0.4540000259876251, 192.0, 127.0, 88.0, 14.0, 64.0, 7.0, 24.0, 0.0, 0.0, 0.0, 1.6292690133359292E9, 2021-08-18 00:43:33.335
98.0, -1169197.5, 4500000.0, -2872330.6875, 4500000.0, 4500000.0, -1372488.65625, 4500000.0, -2243348.8125, 4500000.0, 4500000.0, 4500000.0, 4500000.0, 4500000.0, 4500000.0, 4500000.0, 4500000.0, -0.04200000315904617, 0.9120000600814819, 0.4540000259876251, 192.0, 0.0, 0.0, 0.0, 0.0, 0.0, 0.0, 0.0, 0.0, 0.0, 1.629269013335936E9, 2021-08-18 00:43:33.335
100.0, -1157835.65625, 4500000.0, -2875648.5, 4500000.0, 4500000.0, -1370701.6875, 4500000.0, -2243777.4375, 4500000.0, 4500000.0, 4500000.0, 4500000.0, 4500000.0, 4500000.0, 4500000.0, 4500000.0, -0.04200000315904617, 0.9120000600814819, 0.4540000259876251, 192.0, 0.0, 0.0, 0.0, 0.0, 0.0, 0.0, 0.0, 0.0, 0.0, 1.6292690133359425E9, 2021-08-18 00:43:33.335
102.0, -1171389.46875, 4500000.0, -2873433.0, 4500000.0, 4500000.0, -1378034.34375, 4500000.0, -2245843.3125, 4500000.0, 4500000.0, 4500000.0, 4500000.0, 4500000.0, 4500000.0, 4500000.0, 4500000.0, -0.04200000315904617, 0.9120000600814819, 0.4540000259876251, 192.0, 0.0, 0.0, 0.0, 0.0, 0.0, 0.0, 0.0, 0.0, 0.0, 1.629269013335951E9, 2021-08-18 00:43:33.335
104.0, -1158893.53125, 4500000.0, -2874385.3125, 4500000.0, 4500000.0, -1368478.6875, 4500000.0, -2242890.1875, 4500000.0, 4500000.0, 4500000.0, 4500000.0, 4500000.0, 4500000.0, 4500000.0, 4500000.0, -0.04500000178813934, 0.909000039100647, 0.45000001788139343, 192.0, 127.0, 64.0, 14.0, 40.0, 6.5, 120.0, 0.0, 0.0, 0.0, 1.6292690133359575E9, 2021-08-18 00:43:33.335
106.0, -1172768.625, 4500000.0, -2872641.75, 4500000.0, 4500000.0, -1380499.3125, 4500000.0, -2246482.125, 4500000.0, 4500000.0, 4500000.0, 4500000.0, 4500000.0, 4500000.0, 4500000.0, 4500000.0, -0.04500000178813934, 0.909000039100647, 0.45000001788139343, 192.0, 0.0, 0.0, 0.0, 0.0, 0.0, 0.0, 0.0, 0.0, 0.0, 1.6292690133359644E9, 2021-08-18 00:43:33.335
108.0, -1159478.8125, 4500000.0, -2875114.875, 4500000.0, 4500000.0, -1366330.78125, 4500000.0, -2242801.6875, 4500000.0, 4500000.0, 4500000.0, 4500000.0, 4500000.0, 4500000.0, 4500000.0, 4500000.0, -0.04500000178813934, 0.909000039100647, 0.45000001788139343, 192.0, 0.0, 0.0, 0.0, 0.0, 0.0, 0.0, 0.0, 0.0, 0.0, 1.6292690133359709E9, 2021-08-18 00:43:33.335
110.0, -1174583.90625, 4500000.0, -2873643.9375, 4500000.0, 4500000.0, -1382949.1875, 4500000.0, -2247787.3125, 4500000.0, 4500000.0, 4500000.0, 4500000.0, 4500000.0, 4500000.0, 4500000.0, 4500000.0, -0.04500000178813934, 0.909000039100647, 0.45000001788139343, 192.0, 0.0, 0.0, 0.0, 0.0, 0.0, 0.0, 0.0, 0.0, 0.0, 1.6292690133359776E9, 2021-08-18 00:43:33.335
112.0, -1160327.4375, 4500000.0, -2875068.1875, 4500000.0, 4500000.0, -1364248.875, 4500000.0, -2243286.0, 4500000.0, 4500000.0, 4500000.0, 4500000.0, 4500000.0, 4500000.0, 4500000.0, 4500000.0, -0.04500000178813934, 0.909000039100647, 0.45000001788139343, 192.0, 0.0, 0.0, 0.0, 0.0, 0.0, 0.0, 0.0, 0.0, 0.0, 1.6292690133359842E9, 2021-08-18 00:43:33.335
114.0, -1175000.25, 4500000.0, -2873142.375, 4500000.0, 4500000.0, -1384414.78125, 4500000.0, -2248444.5, 4500000.0, 4500000.0, 4500000.0, 4500000.0, 4500000.0, 4500000.0, 4500000.0, 4500000.0, -0.04350000247359276, 0.9065000414848328, 0.44600002467632294, 192.0, 127.0, 88.0, 14.0, 32.0, 6.5, 104.0, 0.0, 0.0, 0.0, 1.629269013335991E9, 2021-08-18 00:43:33.335
116.0, -1160454.09375, 4500000.0, -2874318.75, 4500000.0, 4500000.0, -1362483.46875, 4500000.0, -2242013.625, 4500000.0, 4500000.0, 4500000.0, 4500000.0, 4500000.0, 4500000.0, 4500000.0, 4500000.0, -0.04350000247359276, 0.9065000414848328, 0.44600002467632294, 192.0, 0.0, 0.0, 0.0, 0.0, 0.0, 0.0, 0.0, 0.0, 0.0, 1.6292690133359973E9, 2021-08-18 00:43:33.335
118.0, -1175147.71875, 4500000.0, -2872723.875, 4500000.0, 4500000.0, -1385852.4375, 4500000.0, -2249058.1875, 4500000.0, 4500000.0, 4500000.0, 4500000.0, 4500000.0, 4500000.0, 4500000.0, 4500000.0, -0.04350000247359276, 0.9065000414848328, 0.44600002467632294, 192.0, 0.0, 0.0, 0.0, 0.0, 0.0, 0.0, 0.0, 0.0, 0.0, 1.629269013336004E9, 2021-08-18 00:43:33.336
120.0, -1160938.96875, 4500000.0, -2874310.6875, 4500000.0, 4500000.0, -1362378.84375, 4500000.0, -2243135.25, 4500000.0, 4500000.0, 4500000.0, 4500000.0, 4500000.0, 4500000.0, 4500000.0, 4500000.0, -0.04350000247359276, 0.9065000414848328, 0.44600002467632294, 192.0, 0.0, 0.0, 0.0, 0.0, 0.0, 0.0, 0.0, 0.0, 0.0, 1.6292690136523309E9, 2021-08-18 00:43:33.652
122.0, -1175153.625, 4500000.0, -2872821.0, 4500000.0, 4500000.0, -1387426.875, 4500000.0, -2250684.75, 4500000.0, 4500000.0, 4500000.0, 4500000.0, 4500000.0, 4500000.0, 4500000.0, 4500000.0, -0.04350000247359276, 0.9065000414848328, 0.44600002467632294, 192.0, 0.0, 0.0, 0.0, 0.0, 0.0, 0.0, 0.0, 0.0, 0.0, 1.6292690136524467E9, 2021-08-18 00:43:33.652
124.0, -1162128.28125, 4500000.0, -2873183.625, 4500000.0, 4500000.0, -1362563.34375, 4500000.0, -2244586.5, 4500000.0, 4500000.0, 4500000.0, 4500000.0, 4500000.0, 4500000.0, 4500000.0, 4500000.0, -0.04375000298023224, 0.9062500298023224, 0.44700001925230026, 192.0, 127.0, 80.0, 14.0, 40.0, 7.0, 0.0, 0.0, 0.0, 0.0, 1.6292690136524537E9, 2021-08-18 00:43:33.652
126.0, -1174416.0, 4500000.0, -2871212.8125, 4500000.0, 4500000.0, -1387360.96875, 4500000.0, -2251324.6875, 4500000.0, 4500000.0, 4500000.0, 4500000.0, 4500000.0, 4500000.0, 4500000.0, 4500000.0, -0.04375000298023224, 0.9062500298023224, 0.44700001925230026, 192.0, 0.0, 0.0, 0.0, 0.0, 0.0, 0.0, 0.0, 0.0, 0.0, 1.6292690136524603E9, 2021-08-18 00:43:33.652
128.0, -1162579.96875, 4500000.0, -2871747.5625, 4500000.0, 4500000.0, -1363460.25, 4500000.0, -2244161.0625, 4500000.0, 4500000.0, 4500000.0, 4500000.0, 4500000.0, 4500000.0, 4500000.0, 4500000.0, -0.04375000298023224, 0.9062500298023224, 0.44700001925230026, 192.0, 0.0, 0.0, 0.0, 0.0, 0.0, 0.0, 0.0, 0.0, 0.0, 1.6292690136524673E9, 2021-08-18 00:43:33.652
130.0, -1172047.6875, 4500000.0, -2870715.9375, 4500000.0, 4500000.0, -1385898.5625, 4500000.0, -2250140.25, 4500000.0, 4500000.0, 4500000.0, 4500000.0, 4500000.0, 4500000.0, 4500000.0, 4500000.0, -0.04375000298023224, 0.9062500298023224, 0.44700001925230026, 192.0, 0.0, 0.0, 0.0, 0.0, 0.0, 0.0, 0.0, 0.0, 0.0, 1.629269013652474E9, 2021-08-18 00:43:33.652
132.0, -1162818.75, 4500000.0, -2871937.5, 4500000.0, 4500000.0, -1364705.34375, 4500000.0, -2244474.75, 4500000.0, 4500000.0, 4500000.0, 4500000.0, 4500000.0, 4500000.0, 4500000.0, 4500000.0, -0.04375000298023224, 0.9062500298023224, 0.44700001925230026, 192.0, 0.0, 0.0, 0.0, 0.0, 0.0, 0.0, 0.0, 0.0, 0.0, 1.6292690136524808E9, 2021-08-18 00:43:33.652
134.0, -1170902.34375, 4500000.0, -2872118.25, 4500000.0, 4500000.0, -1385379.28125, 4500000.0, -2250621.9375, 4500000.0, 4500000.0, 4500000.0, 4500000.0, 4500000.0, 4500000.0, 4500000.0, 4500000.0, -0.04487500339746475, 0.9091250449419022, 0.4515000246465206, 192.0, 127.0, 72.0, 14.0, 64.0, 7.0, 32.0, 0.0, 0.0, 0.0, 1.6292690136524875E9, 2021-08-18 00:43:33.652
136.0, -1164834.65625, 4500000.0, -2871591.9375, 4500000.0, 4500000.0, -1367196.65625, 4500000.0, -2245239.75, 4500000.0, 4500000.0, 4500000.0, 4500000.0, 4500000.0, 4500000.0, 4500000.0, 4500000.0, -0.04487500339746475, 0.9091250449419022, 0.4515000246465206, 192.0, 0.0, 0.0, 0.0, 0.0, 0.0, 0.0, 0.0, 0.0, 0.0, 1.6292690136524944E9, 2021-08-18 00:43:33.652
138.0, -1169729.71875, 4500000.0, -2871314.0625, 4500000.0, 4500000.0, -1383726.0, 4500000.0, -2250457.6875, 4500000.0, 4500000.0, 4500000.0, 4500000.0, 4500000.0, 4500000.0, 4500000.0, 4500000.0, -0.04487500339746475, 0.9091250449419022, 0.4515000246465206, 192.0, 0.0, 0.0, 0.0, 0.0, 0.0, 0.0, 0.0, 0.0, 0.0, 1.629269013652518E9, 2021-08-18 00:43:33.652
140.0, -1166478.28125, 4500000.0, -2872312.875, 4500000.0, 4500000.0, -1370826.1875, 4500000.0, -2247308.25, 4500000.0, 4500000.0, 4500000.0, 4500000.0, 4500000.0, 4500000.0, 4500000.0, 4500000.0, -0.04487500339746475, 0.9091250449419022, 0.4515000246465206, 192.0, 0.0, 0.0, 0.0, 0.0, 0.0, 0.0, 0.0, 0.0, 0.0, 1.629269013652526E9, 2021-08-18 00:43:33.652
142.0, -1168514.625, 4500000.0, -2871234.75, 4500000.0, 4500000.0, -1382591.4375, 4500000.0, -2251139.0625, 4500000.0, 4500000.0, 4500000.0, 4500000.0, 4500000.0, 4500000.0, 4500000.0, 4500000.0, -0.04487500339746475, 0.9091250449419022, 0.4515000246465206, 192.0, 0.0, 0.0, 0.0, 0.0, 0.0, 0.0, 0.0, 0.0, 0.0, 1.6292690136525328E9, 2021-08-18 00:43:33.652
144.0, -1167505.59375, 4500000.0, -2869566.375, 4500000.0, 4500000.0, -1372942.96875, 4500000.0, -2247673.6875, 4500000.0, 4500000.0, 4500000.0, 4500000.0, 4500000.0, 4500000.0, 4500000.0, 4500000.0, -0.04000000283122063, 0.9100000262260437, 0.4540000259876251, 192.0, 127.0, 96.0, 14.0, 56.0, 7.0, 24.0, 0.0, 0.0, 0.0, 1.62926901365254E9, 2021-08-18 00:43:33.652
146.0, -1166777.625, 4500000.0, -2870268.5625, 4500000.0, 4500000.0, -1379695.21875, 4500000.0, -2250268.875, 4500000.0, 4500000.0, 4500000.0, 4500000.0, 4500000.0, 4500000.0, 4500000.0, 4500000.0, -0.04000000283122063, 0.9100000262260437, 0.4540000259876251, 192.0, 0.0, 0.0, 0.0, 0.0, 0.0, 0.0, 0.0, 0.0, 0.0, 1.6292690136525762E9, 2021-08-18 00:43:33.652
148.0, -1168655.15625, 4500000.0, -2869806.1875, 4500000.0, 4500000.0, -1376303.8125, 4500000.0, -2248969.125, 4500000.0, 4500000.0, 4500000.0, 4500000.0, 4500000.0, 4500000.0, 4500000.0, 4500000.0, -0.04000000283122063, 0.9100000262260437, 0.4540000259876251, 192.0, 0.0, 0.0, 0.0, 0.0, 0.0, 0.0, 0.0, 0.0, 0.0, 1.6292690136525836E9, 2021-08-18 00:43:33.652
150.0, -1165445.625, 4500000.0, -2870946.5625, 4500000.0, 4500000.0, -1378089.5625, 4500000.0, -2250226.5, 4500000.0, 4500000.0, 4500000.0, 4500000.0, 4500000.0, 4500000.0, 4500000.0, 4500000.0, -0.04000000283122063, 0.9100000262260437, 0.4540000259876251, 192.0, 0.0, 0.0, 0.0, 0.0, 0.0, 0.0, 0.0, 0.0, 0.0, 1.6292690136525912E9, 2021-08-18 00:43:33.652
152.0, -1169966.25, 4500000.0, -2869548.75, 4500000.0, 4500000.0, -1379575.5, 4500000.0, -2249432.0625, 4500000.0, 4500000.0, 4500000.0, 4500000.0, 4500000.0, 4500000.0, 4500000.0, 4500000.0, -0.04000000283122063, 0.9100000262260437, 0.4540000259876251, 192.0, 0.0, 0.0, 0.0, 0.0, 0.0, 0.0, 0.0, 0.0, 0.0, 1.6292690136525986E9, 2021-08-18 00:43:33.652
154.0, -1163752.125, 4500000.0, -2870223.5625, 4500000.0, 4500000.0, -1374629.0625, 4500000.0, -2249002.3125, 4500000.0, 4500000.0, 4500000.0, 4500000.0, 4500000.0, 4500000.0, 4500000.0, 4500000.0, -0.04000000283122063, 0.8980000615119934, 0.4520000219345093, 192.0, 127.0, 96.0, 14.0, 8.0, 7.0, 16.0, 0.0, 0.0, 0.0, 1.6292690136526058E9, 2021-08-18 00:43:33.652
156.0, -1170870.1875, 4500000.0, -2869425.75, 4500000.0, 4500000.0, -1381651.03125, 4500000.0, -2250983.4375, 4500000.0, 4500000.0, 4500000.0, 4500000.0, 4500000.0, 4500000.0, 4500000.0, 4500000.0, -0.04000000283122063, 0.8980000615119934, 0.4520000219345093, 192.0, 0.0, 0.0, 0.0, 0.0, 0.0, 0.0, 0.0, 0.0, 0.0, 1.6292690136526134E9, 2021-08-18 00:43:33.652
158.0, -1163332.125, 4500000.0, -2871130.6875, 4500000.0, 4500000.0, -1372610.34375, 4500000.0, -2250067.6875, 4500000.0, 4500000.0, 4500000.0, 4500000.0, 4500000.0, 4500000.0, 4500000.0, 4500000.0, -0.04000000283122063, 0.8980000615119934, 0.4520000219345093, 192.0, 0.0, 0.0, 0.0, 0.0, 0.0, 0.0, 0.0, 0.0, 0.0, 1.629269013652634E9, 2021-08-18 00:43:33.652
160.0, -1172644.21875, 4500000.0, -2870689.6875, 4500000.0, 4500000.0, -1384791.375, 4500000.0, -2252410.875, 4500000.0, 4500000.0, 4500000.0, 4500000.0, 4500000.0, 4500000.0, 4500000.0, 4500000.0, -0.04000000283122063, 0.8980000615119934, 0.4520000219345093, 192.0, 0.0, 0.0, 0.0, 0.0, 0.0, 0.0, 0.0, 0.0, 0.0, 1.6292690136526563E9, 2021-08-18 00:43:33.652
162.0, -1163118.0, 4500000.0, -2871573.75, 4500000.0, 4500000.0, -1370624.4375, 4500000.0, -2248987.3125, 4500000.0, 4500000.0, 4500000.0, 4500000.0, 4500000.0, 4500000.0, 4500000.0, 4500000.0, -0.04000000283122063, 0.8980000615119934, 0.4520000219345093, 192.0, 0.0, 0.0, 0.0, 0.0, 0.0, 0.0, 0.0, 0.0, 0.0, 1.6292690136526628E9, 2021-08-18 00:43:33.652
164.0, -1174155.84375, 4500000.0, -2871485.8125, 4500000.0, 4500000.0, -1387693.5, 4500000.0, -2253518.25, 4500000.0, 4500000.0, 4500000.0, 4500000.0, 4500000.0, 4500000.0, 4500000.0, 4500000.0, -0.04000000283122063, 0.9040000438690186, 0.46000000834465027, 192.0, 127.0, 96.0, 14.0, 32.0, 7.0, 48.0, 0.0, 0.0, 0.0, 1.6292690136526697E9, 2021-08-18 00:43:33.652
166.0, -1163661.46875, 4500000.0, -2872297.5, 4500000.0, 4500000.0, -1370152.40625, 4500000.0, -2249491.6875, 4500000.0, 4500000.0, 4500000.0, 4500000.0, 4500000.0, 4500000.0, 4500000.0, 4500000.0, -0.04000000283122063, 0.9040000438690186, 0.46000000834465027, 192.0, 0.0, 0.0, 0.0, 0.0, 0.0, 0.0, 0.0, 0.0, 0.0, 1.629269013652676E9, 2021-08-18 00:43:33.652
168.0, -1174663.875, 4500000.0, -2871007.3125, 4500000.0, 4500000.0, -1389145.6875, 4500000.0, -2254002.0, 4500000.0, 4500000.0, 4500000.0, 4500000.0, 4500000.0, 4500000.0, 4500000.0, 4500000.0, -0.04000000283122063, 0.9040000438690186, 0.46000000834465027, 192.0, 0.0, 0.0, 0.0, 0.0, 0.0, 0.0, 0.0, 0.0, 0.0, 1.6292690136526828E9, 2021-08-18 00:43:33.652
170.0, -1163546.15625, 4500000.0, -2872303.875, 4500000.0, 4500000.0, -1369229.15625, 4500000.0, -2248963.875, 4500000.0, 4500000.0, 4500000.0, 4500000.0, 4500000.0, 4500000.0, 4500000.0, 4500000.0, -0.04000000283122063, 0.9040000438690186, 0.46000000834465027, 192.0, 0.0, 0.0, 0.0, 0.0, 0.0, 0.0, 0.0, 0.0, 0.0, 1.6292690136526897E9, 2021-08-18 00:43:33.652
172.0, -1174534.03125, 4500000.0, -2871174.1875, 4500000.0, 4500000.0, -1389944.4375, 4500000.0, -2254443.0, 4500000.0, 4500000.0, 4500000.0, 4500000.0, 4500000.0, 4500000.0, 4500000.0, 4500000.0, -0.04000000283122063, 0.9040000438690186, 0.46000000834465027, 192.0, 0.0, 0.0, 0.0, 0.0, 0.0, 0.0, 0.0, 0.0, 0.0, 1.6292690136526985E9, 2021-08-18 00:43:33.652
174.0, -1163821.3125, 4500000.0, -2872419.1875, 4500000.0, 4500000.0, -1369331.15625, 4500000.0, -2248870.5, 4500000.0, 4500000.0, 4500000.0, 4500000.0, 4500000.0, 4500000.0, 4500000.0, 4500000.0, -0.04000000283122063, 0.9020000696182251, 0.4620000123977661, 192.0, 127.0, 96.0, 14.0, 24.0, 7.0, 56.0, 0.0, 0.0, 0.0, 1.6292690136527052E9, 2021-08-18 00:43:33.652
176.0, -1173722.4375, 4500000.0, -2871747.5625, 4500000.0, 4500000.0, -1390332.84375, 4500000.0, -2254634.0625, 4500000.0, 4500000.0, 4500000.0, 4500000.0, 4500000.0, 4500000.0, 4500000.0, 4500000.0, -0.04000000283122063, 0.9020000696182251, 0.4620000123977661, 192.0, 0.0, 0.0, 0.0, 0.0, 0.0, 0.0, 0.0, 0.0, 0.0, 1.6292690136527119E9, 2021-08-18 00:43:33.652
178.0, -1163865.28125, 4500000.0, -2872028.625, 4500000.0, 4500000.0, -1369247.4375, 4500000.0, -2248736.25, 4500000.0, 4500000.0, 4500000.0, 4500000.0, 4500000.0, 4500000.0, 4500000.0, 4500000.0, -0.04000000283122063, 0.9020000696182251, 0.4620000123977661, 192.0, 0.0, 0.0, 0.0, 0.0, 0.0, 0.0, 0.0, 0.0, 0.0, 1.6292690136527183E9, 2021-08-18 00:43:33.652
180.0, -1172724.65625, 4500000.0, -2872088.8125, 4500000.0, 4500000.0, -1389685.875, 4500000.0, -2254799.25, 4500000.0, 4500000.0, 4500000.0, 4500000.0, 4500000.0, 4500000.0, 4500000.0, 4500000.0, -0.04000000283122063, 0.9020000696182251, 0.4620000123977661, 192.0, 0.0, 0.0, 0.0, 0.0, 0.0, 0.0, 0.0, 0.0, 0.0, 1.629269013652725E9, 2021-08-18 00:43:33.652
182.0, -1164725.71875, 4500000.0, -2872158.375, 4500000.0, 4500000.0, -1370361.09375, 4500000.0, -2249453.0625, 4500000.0, 4500000.0, 4500000.0, 4500000.0, 4500000.0, 4500000.0, 4500000.0, 4500000.0, -0.04000000283122063, 0.9020000696182251, 0.4620000123977661, 192.0, 0.0, 0.0, 0.0, 0.0, 0.0, 0.0, 0.0, 0.0, 0.0, 1.6292690136527317E9, 2021-08-18 00:43:33.652
184.0, -1171768.125, 4500000.0, -2872190.0625, 4500000.0, 4500000.0, -1388713.875, 4500000.0, -2254571.8125, 4500000.0, 4500000.0, 4500000.0, 4500000.0, 4500000.0, 4500000.0, 4500000.0, 4500000.0, -0.03800000250339508, 0.9020000696182251, 0.46400001645088196, 192.0, 127.0, 104.0, 14.0, 24.0, 7.0, 64.0, 0.0, 0.0, 0.0, 1.6292690136527383E9, 2021-08-18 00:43:33.652
186.0, -1165929.0, 4500000.0, -2872397.25, 4500000.0, 4500000.0, -1372803.0, 4500000.0, -2249828.0625, 4500000.0, 4500000.0, 4500000.0, 4500000.0, 4500000.0, 4500000.0, 4500000.0, 4500000.0, -0.03800000250339508, 0.9020000696182251, 0.46400001645088196, 192.0, 0.0, 0.0, 0.0, 0.0, 0.0, 0.0, 0.0, 0.0, 0.0, 1.629269013652745E9, 2021-08-18 00:43:33.652
188.0, -1170397.59375, 4500000.0, -2872625.625, 4500000.0, 4500000.0, -1387759.5, 4500000.0, -2254098.0, 4500000.0, 4500000.0, 4500000.0, 4500000.0, 4500000.0, 4500000.0, 4500000.0, 4500000.0, -0.03800000250339508, 0.9020000696182251, 0.46400001645088196, 192.0, 0.0, 0.0, 0.0, 0.0, 0.0, 0.0, 0.0, 0.0, 0.0, 1.6292690136527517E9, 2021-08-18 00:43:33.652
190.0, -1167034.59375, 4500000.0, -2872342.5, 4500000.0, 4500000.0, -1375682.0625, 4500000.0, -2250937.3125, 4500000.0, 4500000.0, 4500000.0, 4500000.0, 4500000.0, 4500000.0, 4500000.0, 4500000.0, -0.03800000250339508, 0.9020000696182251, 0.46400001645088196, 192.0, 0.0, 0.0, 0.0, 0.0, 0.0, 0.0, 0.0, 0.0, 0.0, 1.6292690136527584E9, 2021-08-18 00:43:33.652
192.0, -1168654.6875, 4500000.0, -2873073.5625, 4500000.0, 4500000.0, -1386379.21875, 4500000.0, -2254315.875, 4500000.0, 4500000.0, 4500000.0, 4500000.0, 4500000.0, 4500000.0, 4500000.0, 4500000.0, -0.03800000250339508, 0.9040000438690186, 0.4650000184774399, 192.0, 127.0, 104.0, 14.0, 40.0, 7.0, 72.0, 0.0, 0.0, 0.0, 1.6292690136527648E9, 2021-08-18 00:43:33.652
194.0, -1168068.84375, 4500000.0, -2872067.8125, 4500000.0, 4500000.0, -1378234.40625, 4500000.0, -2251751.0625, 4500000.0, 4500000.0, 4500000.0, 4500000.0, 4500000.0, 4500000.0, 4500000.0, 4500000.0, -0.03800000250339508, 0.9040000438690186, 0.4650000184774399, 192.0, 0.0, 0.0, 0.0, 0.0, 0.0, 0.0, 0.0, 0.0, 0.0, 1.629269013652772E9, 2021-08-18 00:43:33.652
196.0, -1167083.4375, 4500000.0, -2873366.625, 4500000.0, 4500000.0, -1383950.8125, 4500000.0, -2254081.5, 4500000.0, 4500000.0, 4500000.0, 4500000.0, 4500000.0, 4500000.0, 4500000.0, 4500000.0, -0.03800000250339508, 0.9040000438690186, 0.4650000184774399, 192.0, 0.0, 0.0, 0.0, 0.0, 0.0, 0.0, 0.0, 0.0, 0.0, 1.6292690136527789E9, 2021-08-18 00:43:33.652
198.0, -1169191.59375, 4500000.0, -2871764.25, 4500000.0, 4500000.0, -1380745.03125, 4500000.0, -2252190.9375, 4500000.0, 4500000.0, 4500000.0, 4500000.0, 4500000.0, 4500000.0, 4500000.0, 4500000.0, -0.03800000250339508, 0.9040000438690186, 0.4650000184774399, 192.0, 0.0, 0.0, 0.0, 0.0, 0.0, 0.0, 0.0, 0.0, 0.0, 1.6292690137642968E9, 2021-08-18 00:43:33.764
200.0, -1165176.9375, 4500000.0, -2872826.8125, 4500000.0, 4500000.0, -1380878.53125, 4500000.0, -2252530.5, 4500000.0, 4500000.0, 4500000.0, 4500000.0, 4500000.0, 4500000.0, 4500000.0, 4500000.0, -0.03800000250339508, 0.9040000438690186, 0.4650000184774399, 192.0, 0.0, 0.0, 0.0, 0.0, 0.0, 0.0, 0.0, 0.0, 0.0, 1.6292690137643063E9, 2021-08-18 00:43:33.764
202.0, -1170217.3125, 4500000.0, -2871599.4375, 4500000.0, 4500000.0, -1383760.875, 4500000.0, -2252730.1875, 4500000.0, 4500000.0, 4500000.0, 4500000.0, 4500000.0, 4500000.0, 4500000.0, 4500000.0, -0.03500000201165676, 0.9070000350475311, 0.4685000255703926, 192.0, 127.5, 0.0, 14.0, 56.0, 7.0, 96.0, 0.0, 0.0, 0.0, 1.6292690137643144E9, 2021-08-18 00:43:33.764
204.0, -1163438.8125, 4500000.0, -2872212.5625, 4500000.0, 4500000.0, -1378032.1875, 4500000.0, -2251620.1875, 4500000.0, 4500000.0, 4500000.0, 4500000.0, 4500000.0, 4500000.0, 4500000.0, 4500000.0, -0.03500000201165676, 0.9070000350475311, 0.4685000255703926, 192.0, 0.0, 0.0, 0.0, 0.0, 0.0, 0.0, 0.0, 0.0, 0.0, 1.6292690137643232E9, 2021-08-18 00:43:33.764
206.0, -1171538.53125, 4500000.0, -2872133.25, 4500000.0, 4500000.0, -1387203.75, 4500000.0, -2254312.6875, 4500000.0, 4500000.0, 4500000.0, 4500000.0, 4500000.0, 4500000.0, 4500000.0, 4500000.0, -0.03500000201165676, 0.9070000350475311, 0.4685000255703926, 192.0, 0.0, 0.0, 0.0, 0.0, 0.0, 0.0, 0.0, 0.0, 0.0, 1.629269013764342E9, 2021-08-18 00:43:33.764
208.0, -1162476.46875, 4500000.0, -2872360.6875, 4500000.0, 4500000.0, -1376103.65625, 4500000.0, -2251645.5, 4500000.0, 4500000.0, 4500000.0, 4500000.0, 4500000.0, 4500000.0, 4500000.0, 4500000.0, -0.03500000201165676, 0.9070000350475311, 0.4685000255703926, 192.0, 0.0, 0.0, 0.0, 0.0, 0.0, 0.0, 0.0, 0.0, 0.0, 1.6292690137643504E9, 2021-08-18 00:43:33.764
210.0, -1171724.71875, 4500000.0, -2871021.75, 4500000.0, 4500000.0, -1388862.9375, 4500000.0, -2255040.0, 4500000.0, 4500000.0, 4500000.0, 4500000.0, 4500000.0, 4500000.0, 4500000.0, 4500000.0, -0.03500000201165676, 0.9070000350475311, 0.4685000255703926, 192.0, 0.0, 0.0, 0.0, 0.0, 0.0, 0.0, 0.0, 0.0, 0.0, 1.6292690137643588E9, 2021-08-18 00:43:33.764
212.0, -1162171.21875, 4500000.0, -2872887.5625, 4500000.0, 4500000.0, -1374511.5, 4500000.0, -2252706.0, 4500000.0, 4500000.0, 4500000.0, 4500000.0, 4500000.0, 4500000.0, 4500000.0, 4500000.0, -0.0335000017657876, 0.9065000265836716, 0.47325002029538155, 192.0, 127.5, 0.0, 14.0, 40.0, 7.0, 120.0, 0.0, 0.0, 0.0, 1.629269013764367E9, 2021-08-18 00:43:33.764
214.0, -1172747.71875, 4500000.0, -2871778.125, 4500000.0, 4500000.0, -1391483.4375, 4500000.0, -2257341.9375, 4500000.0, 4500000.0, 4500000.0, 4500000.0, 4500000.0, 4500000.0, 4500000.0, 4500000.0, -0.0335000017657876, 0.9065000265836716, 0.47325002029538155, 192.0, 0.0, 0.0, 0.0, 0.0, 0.0, 0.0, 0.0, 0.0, 0.0, 1.6292690137643752E9, 2021-08-18 00:43:33.764
216.0, -1161726.46875, 4500000.0, -2872972.875, 4500000.0, 4500000.0, -1373596.875, 4500000.0, -2252869.6875, 4500000.0, 4500000.0, 4500000.0, 4500000.0, 4500000.0, 4500000.0, 4500000.0, 4500000.0, -0.0335000017657876, 0.9065000265836716, 0.47325002029538155, 192.0, 0.0, 0.0, 0.0, 0.0, 0.0, 0.0, 0.0, 0.0, 0.0, 1.6292690137643838E9, 2021-08-18 00:43:33.764
218.0, -1172655.46875, 4500000.0, -2871629.625, 4500000.0, 4500000.0, -1392554.25, 4500000.0, -2257454.625, 4500000.0, 4500000.0, 4500000.0, 4500000.0, 4500000.0, 4500000.0, 4500000.0, 4500000.0, -0.0335000017657876, 0.9065000265836716, 0.47325002029538155, 192.0, 0.0, 0.0, 0.0, 0.0, 0.0, 0.0, 0.0, 0.0, 0.0, 1.629269013764392E9, 2021-08-18 00:43:33.764
220.0, -1162095.5625, 4500000.0, -2873230.875, 4500000.0, 4500000.0, -1372827.65625, 4500000.0, -2252790.1875, 4500000.0, 4500000.0, 4500000.0, 4500000.0, 4500000.0, 4500000.0, 4500000.0, 4500000.0, -0.0335000017657876, 0.9065000265836716, 0.47325002029538155, 192.0, 0.0, 0.0, 0.0, 0.0, 0.0, 0.0, 0.0, 0.0, 0.0, 1.6292690137644005E9, 2021-08-18 00:43:33.764
222.0, -1172986.40625, 4500000.0, -2872068.375, 4500000.0, 4500000.0, -1393571.34375, 4500000.0, -2258118.1875, 4500000.0, 4500000.0, 4500000.0, 4500000.0, 4500000.0, 4500000.0, 4500000.0, 4500000.0, -0.030750001315027475, 0.9002500399947166, 0.47662501968443394, 192.0, 127.5, 16.0, 13.5, 120.0, 7.5, 0.0, 0.0, 0.0, 0.0, 1.6292690137644088E9, 2021-08-18 00:43:33.764
224.0, -1162858.40625, 4500000.0, -2873197.5, 4500000.0, 4500000.0, -1373133.375, 4500000.0, -2252508.0, 4500000.0, 4500000.0, 4500000.0, 4500000.0, 4500000.0, 4500000.0, 4500000.0, 4500000.0, -0.030750001315027475, 0.9002500399947166, 0.47662501968443394, 192.0, 0.0, 0.0, 0.0, 0.0, 0.0, 0.0, 0.0, 0.0, 0.0, 1.6292690138794117E9, 2021-08-18 00:43:33.879
226.0, -1172606.625, 4500000.0, -2872087.125, 4500000.0, 4500000.0, -1393751.0625, 4500000.0, -2258025.9375, 4500000.0, 4500000.0, 4500000.0, 4500000.0, 4500000.0, 4500000.0, 4500000.0, 4500000.0, -0.030750001315027475, 0.9002500399947166, 0.47662501968443394, 192.0, 0.0, 0.0, 0.0, 0.0, 0.0, 0.0, 0.0, 0.0, 0.0, 1.6292690138794253E9, 2021-08-18 00:43:33.879
228.0, -1164470.4375, 4500000.0, -2873564.4375, 4500000.0, 4500000.0, -1374275.53125, 4500000.0, -2253426.375, 4500000.0, 4500000.0, 4500000.0, 4500000.0, 4500000.0, 4500000.0, 4500000.0, 4500000.0, -0.030750001315027475, 0.9002500399947166, 0.47662501968443394, 192.0, 0.0, 0.0, 0.0, 0.0, 0.0, 0.0, 0.0, 0.0, 0.0, 1.6292690138794324E9, 2021-08-18 00:43:33.879
230.0, -1172774.53125, 4500000.0, -2872865.4375, 4500000.0, 4500000.0, -1393488.65625, 4500000.0, -2258624.0625, 4500000.0, 4500000.0, 4500000.0, 4500000.0, 4500000.0, 4500000.0, 4500000.0, 4500000.0, -0.030750001315027475, 0.9002500399947166, 0.47662501968443394, 192.0, 0.0, 0.0, 0.0, 0.0, 0.0, 0.0, 0.0, 0.0, 0.0, 1.629269013879439E9, 2021-08-18 00:43:33.879
232.0, -1166185.96875, 4500000.0, -2872541.4375, 4500000.0, 4500000.0, -1374967.5, 4500000.0, -2253356.25, 4500000.0, 4500000.0, 4500000.0, 4500000.0, 4500000.0, 4500000.0, 4500000.0, 4500000.0, -0.025375001365318894, 0.8981250338256359, 0.47531252820044756, 192.0, 127.5, 48.0, 14.0, 0.0, 7.0, 104.0, 0.0, 0.0, 0.0, 1.6292690138794463E9, 2021-08-18 00:43:33.879
234.0, -1172695.6875, 4500000.0, -2872500.1875, 4500000.0, 4500000.0, -1391957.71875, 4500000.0, -2258031.75, 4500000.0, 4500000.0, 4500000.0, 4500000.0, 4500000.0, 4500000.0, 4500000.0, 4500000.0, -0.025375001365318894, 0.8981250338256359, 0.47531252820044756, 192.0, 0.0, 0.0, 0.0, 0.0, 0.0, 0.0, 0.0, 0.0, 0.0, 1.6292690138794532E9, 2021-08-18 00:43:33.879
236.0, -1168736.71875, 4500000.0, -2872697.0625, 4500000.0, 4500000.0, -1377015.09375, 4500000.0, -2253750.0, 4500000.0, 4500000.0, 4500000.0, 4500000.0, 4500000.0, 4500000.0, 4500000.0, 4500000.0, -0.025375001365318894, 0.8981250338256359, 0.47531252820044756, 192.0, 0.0, 0.0, 0.0, 0.0, 0.0, 0.0, 0.0, 0.0, 0.0, 1.6292690138794603E9, 2021-08-18 00:43:33.879
238.0, -1172676.9375, 4500000.0, -2873005.5, 4500000.0, 4500000.0, -1390198.125, 4500000.0, -2258084.4375, 4500000.0, 4500000.0, 4500000.0, 4500000.0, 4500000.0, 4500000.0, 4500000.0, 4500000.0, -0.025375001365318894, 0.8981250338256359, 0.47531252820044756, 192.0, 0.0, 0.0, 0.0, 0.0, 0.0, 0.0, 0.0, 0.0, 0.0, 1.6292690138794672E9, 2021-08-18 00:43:33.879
240.0, -1170960.84375, 4500000.0, -2872665.9375, 4500000.0, 4500000.0, -1379154.46875, 4500000.0, -2254887.1875, 4500000.0, 4500000.0, 4500000.0, 4500000.0, 4500000.0, 4500000.0, 4500000.0, 4500000.0, -0.025375001365318894, 0.8981250338256359, 0.47531252820044756, 192.0, 0.0, 0.0, 0.0, 0.0, 0.0, 0.0, 0.0, 0.0, 0.0, 1.6292690138794823E9, 2021-08-18 00:43:33.879
242.0, -1171565.4375, 4500000.0, -2872879.5, 4500000.0, 4500000.0, -1387614.09375, 4500000.0, -2257536.75, 4500000.0, 4500000.0, 4500000.0, 4500000.0, 4500000.0, 4500000.0, 4500000.0, 4500000.0, -0.01600000075995922, 0.9000000357627869, 0.46400001645088196, 192.0, 127.5, 64.0, 14.0, 16.0, 7.0, 64.0, 0.0, 0.0, 0.0, 1.6292690138794892E9, 2021-08-18 00:43:33.879
244.0, -1173049.21875, 4500000.0, -2872749.5625, 4500000.0, 4500000.0, -1382128.96875, 4500000.0, -2256031.3125, 4500000.0, 4500000.0, 4500000.0, 4500000.0, 4500000.0, 4500000.0, 4500000.0, 4500000.0, -0.01600000075995922, 0.9000000357627869, 0.46400001645088196, 192.0, 0.0, 0.0, 0.0, 0.0, 0.0, 0.0, 0.0, 0.0, 0.0, 1.629269013879496E9, 2021-08-18 00:43:33.879
246.0, -1171044.0, 4500000.0, -2874204.9375, 4500000.0, 4500000.0, -1386406.03125, 4500000.0, -2258252.25, 4500000.0, 4500000.0, 4500000.0, 4500000.0, 4500000.0, 4500000.0, 4500000.0, 4500000.0, -0.01600000075995922, 0.9000000357627869, 0.46400001645088196, 192.0, 0.0, 0.0, 0.0, 0.0, 0.0, 0.0, 0.0, 0.0, 0.0, 1.6292690138795028E9, 2021-08-18 00:43:33.879
248.0, -1174268.53125, 4500000.0, -2872215.375, 4500000.0, 4500000.0, -1384662.65625, 4500000.0, -2256181.6875, 4500000.0, 4500000.0, 4500000.0, 4500000.0, 4500000.0, 4500000.0, 4500000.0, 4500000.0, -0.01600000075995922, 0.9000000357627869, 0.46400001645088196, 192.0, 0.0, 0.0, 0.0, 0.0, 0.0, 0.0, 0.0, 0.0, 0.0, 1.6292690138795097E9, 2021-08-18 00:43:33.879
250.0, -1168712.0625, 4500000.0, -2872864.5, 4500000.0, 4500000.0, -1382500.78125, 4500000.0, -2255683.875, 4500000.0, 4500000.0, 4500000.0, 4500000.0, 4500000.0, 4500000.0, 4500000.0, 4500000.0, -0.01600000075995922, 0.9000000357627869, 0.46400001645088196, 192.0, 0.0, 0.0, 0.0, 0.0, 0.0, 0.0, 0.0, 0.0, 0.0, 1.629269013879518E9, 2021-08-18 00:43:33.879
252.0, -1176621.9375, 4500000.0, -2873782.3125, 4500000.0, 4500000.0, -1388750.34375, 4500000.0, -2257758.75, 4500000.0, 4500000.0, 4500000.0, 4500000.0, 4500000.0, 4500000.0, 4500000.0, 4500000.0, -0.014000000432133675, 0.9040000438690186, 0.4540000259876251, 192.0, 127.5, 72.0, 14.0, 32.0, 7.0, 24.0, 0.0, 0.0, 0.0, 1.6292690138795247E9, 2021-08-18 00:43:33.879
254.0, -1168722.75, 4500000.0, -2874103.125, 4500000.0, 4500000.0, -1381443.9375, 4500000.0, -2256071.0625, 4500000.0, 4500000.0, 4500000.0, 4500000.0, 4500000.0, 4500000.0, 4500000.0, 4500000.0, -0.014000000432133675, 0.9040000438690186, 0.4540000259876251, 192.0, 0.0, 0.0, 0.0, 0.0, 0.0, 0.0, 0.0, 0.0, 0.0, 1.629269013953574E9, 2021-08-18 00:43:33.953
0.0, -1177483.40625, 4500000.0, -2872871.4375, 4500000.0, 4500000.0, -1390675.03125, 4500000.0, -2258383.125, 4500000.0, 4500000.0, 4500000.0, 4500000.0, 4500000.0, 4500000.0, 4500000.0, 4500000.0, -0.014000000432133675, 0.9040000438690186, 0.4540000259876251, 192.0, 0.0, 0.0, 0.0, 0.0, 0.0, 0.0, 0.0, 0.0, 0.0, 1.629269013953582E9, 2021-08-18 00:43:33.953
2.0, -1167490.03125, 4500000.0, -2874050.4375, 4500000.0, 4500000.0, -1378769.8125, 4500000.0, -2255398.3125, 4500000.0, 4500000.0, 4500000.0, 4500000.0, 4500000.0, 4500000.0, 4500000.0, 4500000.0, -0.014000000432133675, 0.9040000438690186, 0.4540000259876251, 192.0, 0.0, 0.0, 0.0, 0.0, 0.0, 0.0, 0.0, 0.0, 0.0, 1.629269013953589E9, 2021-08-18 00:43:33.953
4.0, -1177504.3125, 4500000.0, -2872278.5625, 4500000.0, 4500000.0, -1392468.9375, 4500000.0, -2259121.875, 4500000.0, 4500000.0, 4500000.0, 4500000.0, 4500000.0, 4500000.0, 4500000.0, 4500000.0, -0.014000000432133675, 0.9040000438690186, 0.4540000259876251, 192.0, 0.0, 0.0, 0.0, 0.0, 0.0, 0.0, 0.0, 0.0, 0.0, 1.629269013953596E9, 2021-08-18 00:43:33.953
6.0, -1167166.59375, 4500000.0, -2874274.6875, 4500000.0, 4500000.0, -1376853.09375, 4500000.0, -2255652.75, 4500000.0, 4500000.0, 4500000.0, 4500000.0, 4500000.0, 4500000.0, 4500000.0, 4500000.0, -0.006000000052154064, 0.9020000696182251, 0.44600000977516174, 192.0, 127.5, 104.0, 14.0, 24.0, 6.5, 120.0, 0.0, 0.0, 0.0, 1.6292690139536028E9, 2021-08-18 00:43:33.953
8.0, -1179250.96875, 4500000.0, -2873311.875, 4500000.0, 4500000.0, -1394794.40625, 4500000.0, -2261145.375, 4500000.0, 4500000.0, 4500000.0, 4500000.0, 4500000.0, 4500000.0, 4500000.0, 4500000.0, -0.006000000052154064, 0.9020000696182251, 0.44600000977516174, 192.0, 0.0, 0.0, 0.0, 0.0, 0.0, 0.0, 0.0, 0.0, 0.0, 1.6292690139536097E9, 2021-08-18 00:43:33.953
10.0, -1167508.3125, 4500000.0, -2873692.125, 4500000.0, 4500000.0, -1375571.53125, 4500000.0, -2255528.8125, 4500000.0, 4500000.0, 4500000.0, 4500000.0, 4500000.0, 4500000.0, 4500000.0, 4500000.0, -0.006000000052154064, 0.9020000696182251, 0.44600000977516174, 192.0, 0.0, 0.0, 0.0, 0.0, 0.0, 0.0, 0.0, 0.0, 0.0, 1.6292690139536169E9, 2021-08-18 00:43:33.953
12.0, -1179322.875, 4500000.0, -2873319.375, 4500000.0, 4500000.0, -1395859.78125, 4500000.0, -2261410.875, 4500000.0, 4500000.0, 4500000.0, 4500000.0, 4500000.0, 4500000.0, 4500000.0, 4500000.0, -0.006000000052154064, 0.9020000696182251, 0.44600000977516174, 192.0, 0.0, 0.0, 0.0, 0.0, 0.0, 0.0, 0.0, 0.0, 0.0, 1.6292690139536235E9, 2021-08-18 00:43:33.953
14.0, -1168001.25, 4500000.0, -2874048.9375, 4500000.0, 4500000.0, -1375544.71875, 4500000.0, -2256510.0, 4500000.0, 4500000.0, 4500000.0, 4500000.0, 4500000.0, 4500000.0, 4500000.0, 4500000.0, -0.006000000052154064, 0.9020000696182251, 0.44600000977516174, 192.0, 0.0, 0.0, 0.0, 0.0, 0.0, 0.0, 0.0, 0.0, 0.0, 1.6292690144097147E9, 2021-08-18 00:43:34.409
16.0, -1178874.375, 4500000.0, -2873396.625, 4500000.0, 4500000.0, -1396639.78125, 4500000.0, -2262152.25, 4500000.0, 4500000.0, 4500000.0, 4500000.0, 4500000.0, 4500000.0, 4500000.0, 4500000.0, -0.0020000000949949026, 0.9120000600814819, 0.4280000329017639, 192.0, 127.5, 120.0, 14.0, 64.0, 6.5, 48.0, 0.0, 0.0, 0.0, 1.6292690144097247E9, 2021-08-18 00:43:34.409
18.0, -1168577.90625, 4500000.0, -2873808.5625, 4500000.0, 4500000.0, -1376075.25, 4500000.0, -2256282.0, 4500000.0, 4500000.0, 4500000.0, 4500000.0, 4500000.0, 4500000.0, 4500000.0, 4500000.0, -0.0020000000949949026, 0.9120000600814819, 0.4280000329017639, 192.0, 0.0, 0.0, 0.0, 0.0, 0.0, 0.0, 0.0, 0.0, 0.0, 1.629269014409742E9, 2021-08-18 00:43:34.409
20.0, -1177873.96875, 4500000.0, -2873053.875, 4500000.0, 4500000.0, -1396476.1875, 4500000.0, -2262354.375, 4500000.0, 4500000.0, 4500000.0, 4500000.0, 4500000.0, 4500000.0, 4500000.0, 4500000.0, -0.0020000000949949026, 0.9120000600814819, 0.4280000329017639, 192.0, 0.0, 0.0, 0.0, 0.0, 0.0, 0.0, 0.0, 0.0, 0.0, 1.6292690144097636E9, 2021-08-18 00:43:34.409
22.0, -1170518.25, 4500000.0, -2874515.0625, 4500000.0, 4500000.0, -1377859.96875, 4500000.0, -2258259.1875, 4500000.0, 4500000.0, 4500000.0, 4500000.0, 4500000.0, 4500000.0, 4500000.0, 4500000.0, -0.0020000000949949026, 0.9120000600814819, 0.4280000329017639, 192.0, 0.0, 0.0, 0.0, 0.0, 0.0, 0.0, 0.0, 0.0, 0.0, 1.6292690144097903E9, 2021-08-18 00:43:34.409
24.0, -1178225.34375, 4500000.0, -2872842.9375, 4500000.0, 4500000.0, -1395928.96875, 4500000.0, -2263270.125, 4500000.0, 4500000.0, 4500000.0, 4500000.0, 4500000.0, 4500000.0, 4500000.0, 4500000.0, -0.0020000000949949026, 0.9120000600814819, 0.4280000329017639, 192.0, 0.0, 0.0, 0.0, 0.0, 0.0, 0.0, 0.0, 0.0, 0.0, 1.6292690144098203E9, 2021-08-18 00:43:34.409
26.0, -1172292.84375, 4500000.0, -2872069.5, 4500000.0, 4500000.0, -1378977.9375, 4500000.0, -2259396.0, 4500000.0, 4500000.0, 4500000.0, 4500000.0, 4500000.0, 4500000.0, 4500000.0, 4500000.0, -0.006000000052154064, 0.9200000166893005, 0.4180000126361847, 192.0, 127.5, 104.0, 14.0, 96.0, 6.5, 8.0, 0.0, 0.0, 0.0, 1.62926901440983E9, 2021-08-18 00:43:34.409
28.0, -1177011.84375, 4500000.0, -2871370.5, 4500000.0, 4500000.0, -1394314.78125, 4500000.0, -2263213.875, 4500000.0, 4500000.0, 4500000.0, 4500000.0, 4500000.0, 4500000.0, 4500000.0, 4500000.0, -0.006000000052154064, 0.9200000166893005, 0.4180000126361847, 192.0, 0.0, 0.0, 0.0, 0.0, 0.0, 0.0, 0.0, 0.0, 0.0, 1.629269014409852E9, 2021-08-18 00:43:34.409
30.0, -1173781.96875, 4500000.0, -2871799.5, 4500000.0, 4500000.0, -1381367.25, 4500000.0, -2260054.6875, 4500000.0, 4500000.0, 4500000.0, 4500000.0, 4500000.0, 4500000.0, 4500000.0, 4500000.0, -0.006000000052154064, 0.9200000166893005, 0.4180000126361847, 192.0, 0.0, 0.0, 0.0, 0.0, 0.0, 0.0, 0.0, 0.0, 0.0, 1.6292690144098587E9, 2021-08-18 00:43:34.409
32.0, -1176459.84375, 4500000.0, -2872609.125, 4500000.0, 4500000.0, -1393741.40625, 4500000.0, -2264405.8125, 4500000.0, 4500000.0, 4500000.0, 4500000.0, 4500000.0, 4500000.0, 4500000.0, 4500000.0, -0.006000000052154064, 0.9200000166893005, 0.4180000126361847, 192.0, 0.0, 0.0, 0.0, 0.0, 0.0, 0.0, 0.0, 0.0, 0.0, 1.6292690144098654E9, 2021-08-18 00:43:34.409
34.0, -1175290.96875, 4500000.0, -2871740.0625, 4500000.0, 4500000.0, -1383713.625, 4500000.0, -2261298.1875, 4500000.0, 4500000.0, 4500000.0, 4500000.0, 4500000.0, 4500000.0, 4500000.0, 4500000.0, -0.012000000569969416, 0.9250000417232513, 0.4190000146627426, 192.0, 127.5, 56.0, 14.5, 8.0, 6.5, 16.0, 0.0, 0.0, 0.0, 1.629269014409872E9, 2021-08-18 00:43:34.409
36.0, -1174528.125, 4500000.0, -2872431.0, 4500000.0, 4500000.0, -1391102.0625, 4500000.0, -2262857.625, 4500000.0, 4500000.0, 4500000.0, 4500000.0, 4500000.0, 4500000.0, 4500000.0, 4500000.0, -0.012000000569969416, 0.9250000417232513, 0.4190000146627426, 192.0, 0.0, 0.0, 0.0, 0.0, 0.0, 0.0, 0.0, 0.0, 0.0, 1.6292690144098787E9, 2021-08-18 00:43:34.409
38.0, -1176515.15625, 4500000.0, -2871310.3125, 4500000.0, 4500000.0, -1386321.28125, 4500000.0, -2261196.75, 4500000.0, 4500000.0, 4500000.0, 4500000.0, 4500000.0, 4500000.0, 4500000.0, 4500000.0, -0.012000000569969416, 0.9250000417232513, 0.4190000146627426, 192.0, 0.0, 0.0, 0.0, 0.0, 0.0, 0.0, 0.0, 0.0, 0.0, 1.629269014409906E9, 2021-08-18 00:43:34.409
40.0, -1173144.09375, 4500000.0, -2872867.6875, 4500000.0, 4500000.0, -1388926.78125, 4500000.0, -2262925.6875, 4500000.0, 4500000.0, 4500000.0, 4500000.0, 4500000.0, 4500000.0, 4500000.0, 4500000.0, -0.012000000569969416, 0.9250000417232513, 0.4190000146627426, 192.0, 0.0, 0.0, 0.0, 0.0, 0.0, 0.0, 0.0, 0.0, 0.0, 1.6292690144099293E9, 2021-08-18 00:43:34.409
42.0, -1177862.15625, 4500000.0, -2871611.25, 4500000.0, 4500000.0, -1389417.09375, 4500000.0, -2262556.6875, 4500000.0, 4500000.0, 4500000.0, 4500000.0, 4500000.0, 4500000.0, 4500000.0, 4500000.0, -0.012000000569969416, 0.9250000417232513, 0.4190000146627426, 192.0, 0.0, 0.0, 0.0, 0.0, 0.0, 0.0, 0.0, 0.0, 0.0, 1.629269014409936E9, 2021-08-18 00:43:34.409
44.0, -1171813.21875, 4500000.0, -2873201.8125, 4500000.0, 4500000.0, -1386654.9375, 4500000.0, -2262386.0625, 4500000.0, 4500000.0, 4500000.0, 4500000.0, 4500000.0, 4500000.0, 4500000.0, 4500000.0, -0.017000001156702638, 0.931500032544136, 0.416500024497509, 192.0, 127.5, 40.0, 14.5, 40.0, 6.0, 120.0, 0.0, 0.0, 0.0, 1.6292690144099612E9, 2021-08-18 00:43:34.409
46.0, -1179557.34375, 4500000.0, -2872329.0, 4500000.0, 4500000.0, -1392938.34375, 4500000.0, -2263873.125, 4500000.0, 4500000.0, 4500000.0, 4500000.0, 4500000.0, 4500000.0, 4500000.0, 4500000.0, -0.017000001156702638, 0.931500032544136, 0.416500024497509, 192.0, 0.0, 0.0, 0.0, 0.0, 0.0, 0.0, 0.0, 0.0, 0.0, 1.6292690144099681E9, 2021-08-18 00:43:34.409
48.0, -1170800.4375, 4500000.0, -2872955.625, 4500000.0, 4500000.0, -1384304.25, 4500000.0, -2261323.3125, 4500000.0, 4500000.0, 4500000.0, 4500000.0, 4500000.0, 4500000.0, 4500000.0, 4500000.0, -0.017000001156702638, 0.931500032544136, 0.416500024497509, 192.0, 0.0, 0.0, 0.0, 0.0, 0.0, 0.0, 0.0, 0.0, 0.0, 1.6292690144099753E9, 2021-08-18 00:43:34.409
50.0, -1181255.71875, 4500000.0, -2872682.625, 4500000.0, 4500000.0, -1395673.59375, 4500000.0, -2264760.9375, 4500000.0, 4500000.0, 4500000.0, 4500000.0, 4500000.0, 4500000.0, 4500000.0, 4500000.0, -0.017000001156702638, 0.931500032544136, 0.416500024497509, 192.0, 0.0, 0.0, 0.0, 0.0, 0.0, 0.0, 0.0, 0.0, 0.0, 1.629269014409982E9, 2021-08-18 00:43:34.409
52.0, -1170876.09375, 4500000.0, -2873699.0625, 4500000.0, 4500000.0, -1382800.125, 4500000.0, -2261303.0625, 4500000.0, 4500000.0, 4500000.0, 4500000.0, 4500000.0, 4500000.0, 4500000.0, 4500000.0, -0.017000001156702638, 0.931500032544136, 0.416500024497509, 192.0, 0.0, 0.0, 0.0, 0.0, 0.0, 0.0, 0.0, 0.0, 0.0, 1.6292690144099927E9, 2021-08-18 00:43:34.409
54.0, -1182210.0, 4500000.0, -2873002.875, 4500000.0, 4500000.0, -1398046.3125, 4500000.0, -2265354.1875, 4500000.0, 4500000.0, 4500000.0, 4500000.0, 4500000.0, 4500000.0, 4500000.0, 4500000.0, -0.022500001010484993, 0.9347500279545784, 0.4142500273883343, 192.0, 127.5, 16.0, 14.5, 40.0, 6.0, 112.0, 0.0, 0.0, 0.0, 1.6292690144099996E9, 2021-08-18 00:43:34.409
56.0, -1170571.40625, 4500000.0, -2873946.375, 4500000.0, 4500000.0, -1381567.3125, 4500000.0, -2261404.875, 4500000.0, 4500000.0, 4500000.0, 4500000.0, 4500000.0, 4500000.0, 4500000.0, 4500000.0, -0.022500001010484993, 0.9347500279545784, 0.4142500273883343, 192.0, 0.0, 0.0, 0.0, 0.0, 0.0, 0.0, 0.0, 0.0, 0.0, 1.6292690144100063E9, 2021-08-18 00:43:34.410
58.0, -1182241.125, 4500000.0, -2872589.8125, 4500000.0, 4500000.0, -1399127.8125, 4500000.0, -2265444.9375, 4500000.0, 4500000.0, 4500000.0, 4500000.0, 4500000.0, 4500000.0, 4500000.0, 4500000.0, -0.022500001010484993, 0.9347500279545784, 0.4142500273883343, 192.0, 0.0, 0.0, 0.0, 0.0, 0.0, 0.0, 0.0, 0.0, 0.0, 1.6292690144100132E9, 2021-08-18 00:43:34.410
60.0, -1170782.15625, 4500000.0, -2873715.75, 4500000.0, 4500000.0, -1380025.125, 4500000.0, -2260828.3125, 4500000.0, 4500000.0, 4500000.0, 4500000.0, 4500000.0, 4500000.0, 4500000.0, 4500000.0, -0.022500001010484993, 0.9347500279545784, 0.4142500273883343, 192.0, 0.0, 0.0, 0.0, 0.0, 0.0, 0.0, 0.0, 0.0, 0.0, 1.62926901441002E9, 2021-08-18 00:43:34.410
62.0, -1183022.15625, 4500000.0, -2873323.6875, 4500000.0, 4500000.0, -1400399.71875, 4500000.0, -2266922.8125, 4500000.0, 4500000.0, 4500000.0, 4500000.0, 4500000.0, 4500000.0, 4500000.0, 4500000.0, -0.022500001010484993, 0.9347500279545784, 0.4142500273883343, 192.0, 0.0, 0.0, 0.0, 0.0, 0.0, 0.0, 0.0, 0.0, 0.0, 1.6292690144100275E9, 2021-08-18 00:43:34.410
64.0, -1172185.5, 4500000.0, -2873716.875, 4500000.0, 4500000.0, -1380043.875, 4500000.0, -2261532.5625, 4500000.0, 4500000.0, 4500000.0, 4500000.0, 4500000.0, 4500000.0, 4500000.0, 4500000.0, -0.029250001593027264, 0.9323750473558903, 0.4161250200122595, 192.0, 127.0, 112.0, 14.5, 8.0, 6.5, 8.0, 0.0, 0.0, 0.0, 1.6292690144100342E9, 2021-08-18 00:43:34.410
66.0, -1183498.03125, 4500000.0, -2873480.8125, 4500000.0, 4500000.0, -1400961.84375, 4500000.0, -2268371.25, 4500000.0, 4500000.0, 4500000.0, 4500000.0, 4500000.0, 4500000.0, 4500000.0, 4500000.0, -0.029250001593027264, 0.9323750473558903, 0.4161250200122595, 192.0, 0.0, 0.0, 0.0, 0.0, 0.0, 0.0, 0.0, 0.0, 0.0, 1.629269014410041E9, 2021-08-18 00:43:34.410
68.0, -1173192.375, 4500000.0, -2873250.75, 4500000.0, 4500000.0, -1380238.03125, 4500000.0, -2263149.375, 4500000.0, 4500000.0, 4500000.0, 4500000.0, 4500000.0, 4500000.0, 4500000.0, 4500000.0, -0.029250001593027264, 0.9323750473558903, 0.4161250200122595, 192.0, 0.0, 0.0, 0.0, 0.0, 0.0, 0.0, 0.0, 0.0, 0.0, 1.6292690144100478E9, 2021-08-18 00:43:34.410
70.0, -1182161.15625, 4500000.0, -2872919.625, 4500000.0, 4500000.0, -1399755.375, 4500000.0, -2268446.8125, 4500000.0, 4500000.0, 4500000.0, 4500000.0, 4500000.0, 4500000.0, 4500000.0, 4500000.0, -0.029250001593027264, 0.9323750473558903, 0.4161250200122595, 192.0, 0.0, 0.0, 0.0, 0.0, 0.0, 0.0, 0.0, 0.0, 0.0, 1.6292690144100547E9, 2021-08-18 00:43:34.410
72.0, -1173888.1875, 4500000.0, -2872853.25, 4500000.0, 4500000.0, -1380745.03125, 4500000.0, -2263398.375, 4500000.0, 4500000.0, 4500000.0, 4500000.0, 4500000.0, 4500000.0, 4500000.0, 4500000.0, -0.029250001593027264, 0.9323750473558903, 0.4161250200122595, 192.0, 0.0, 0.0, 0.0, 0.0, 0.0, 0.0, 0.0, 0.0, 0.0, 1.629269014410062E9, 2021-08-18 00:43:34.410
74.0, -1181398.875, 4500000.0, -2872657.875, 4500000.0, 4500000.0, -1398294.1875, 4500000.0, -2268919.875, 4500000.0, 4500000.0, 4500000.0, 4500000.0, 4500000.0, 4500000.0, 4500000.0, 4500000.0, -0.030000001192092896, 0.9260000586509705, 0.4180000126361847, 192.0, 127.5, 8.0, 14.0, 120.0, 6.5, 8.0, 0.0, 0.0, 0.0, 1.6292690144100688E9, 2021-08-18 00:43:34.410
76.0, -1176238.3125, 4500000.0, -2872667.0625, 4500000.0, 4500000.0, -1381978.3125, 4500000.0, -2265633.1875, 4500000.0, 4500000.0, 4500000.0, 4500000.0, 4500000.0, 4500000.0, 4500000.0, 4500000.0, -0.030000001192092896, 0.9260000586509705, 0.4180000126361847, 192.0, 0.0, 0.0, 0.0, 0.0, 0.0, 0.0, 0.0, 0.0, 0.0, 1.6292690144100945E9, 2021-08-18 00:43:34.410
78.0, -1180741.78125, 4500000.0, -2872616.0625, 4500000.0, 4500000.0, -1396357.03125, 4500000.0, -2270338.875, 4500000.0, 4500000.0, 4500000.0, 4500000.0, 4500000.0, 4500000.0, 4500000.0, 4500000.0, -0.030000001192092896, 0.9260000586509705, 0.4180000126361847, 192.0, 0.0, 0.0, 0.0, 0.0, 0.0, 0.0, 0.0, 0.0, 0.0, 1.629269014410102E9, 2021-08-18 00:43:34.410
80.0, -1177446.375, 4500000.0, -2871521.625, 4500000.0, 4500000.0, -1382968.03125, 4500000.0, -2266522.125, 4500000.0, 4500000.0, 4500000.0, 4500000.0, 4500000.0, 4500000.0, 4500000.0, 4500000.0, -0.030000001192092896, 0.9260000586509705, 0.4180000126361847, 192.0, 0.0, 0.0, 0.0, 0.0, 0.0, 0.0, 0.0, 0.0, 0.0, 1.6292690144101088E9, 2021-08-18 00:43:34.410
82.0, -1179461.8125, 4500000.0, -2873185.125, 4500000.0, 4500000.0, -1394153.34375, 4500000.0, -2270366.25, 4500000.0, 4500000.0, 4500000.0, 4500000.0, 4500000.0, 4500000.0, 4500000.0, 4500000.0, -0.030000001192092896, 0.9260000586509705, 0.4180000126361847, 192.0, 0.0, 0.0, 0.0, 0.0, 0.0, 0.0, 0.0, 0.0, 0.0, 1.629269014410116E9, 2021-08-18 00:43:34.410
84.0, -1179665.625, 4500000.0, -2872202.4375, 4500000.0, 4500000.0, -1385224.3125, 4500000.0, -2267604.0, 4500000.0, 4500000.0, 4500000.0, 4500000.0, 4500000.0, 4500000.0, 4500000.0, 4500000.0, -0.020000001415610313, 0.9300000667572021, 0.41200003027915955, 192.0, 127.5, 48.0, 14.5, 8.0, 6.0, 112.0, 0.0, 0.0, 0.0, 1.629269014410123E9, 2021-08-18 00:43:34.410
86.0, -1178423.25, 4500000.0, -2873413.6875, 4500000.0, 4500000.0, -1391355.28125, 4500000.0, -2269688.625, 4500000.0, 4500000.0, 4500000.0, 4500000.0, 4500000.0, 4500000.0, 4500000.0, 4500000.0, -0.020000001415610313, 0.9300000667572021, 0.41200003027915955, 192.0, 0.0, 0.0, 0.0, 0.0, 0.0, 0.0, 0.0, 0.0, 0.0, 1.6292690144101326E9, 2021-08-18 00:43:34.410
88.0, -1181779.21875, 4500000.0, -2873021.0625, 4500000.0, 4500000.0, -1388191.3125, 4500000.0, -2268810.5625, 4500000.0, 4500000.0, 4500000.0, 4500000.0, 4500000.0, 4500000.0, 4500000.0, 4500000.0, -0.020000001415610313, 0.9300000667572021, 0.41200003027915955, 192.0, 0.0, 0.0, 0.0, 0.0, 0.0, 0.0, 0.0, 0.0, 0.0, 1.6292690144101524E9, 2021-08-18 00:43:34.410
90.0, -1177687.3125, 4500000.0, -2874159.375, 4500000.0, 4500000.0, -1389078.09375, 4500000.0, -2269603.3125, 4500000.0, 4500000.0, 4500000.0, 4500000.0, 4500000.0, 4500000.0, 4500000.0, 4500000.0, -0.020000001415610313, 0.9300000667572021, 0.41200003027915955, 192.0, 0.0, 0.0, 0.0, 0.0, 0.0, 0.0, 0.0, 0.0, 0.0, 1.6292690144101725E9, 2021-08-18 00:43:34.410
92.0, -1183412.71875, 4500000.0, -2872522.6875, 4500000.0, 4500000.0, -1390385.90625, 4500000.0, -2269275.5625, 4500000.0, 4500000.0, 4500000.0, 4500000.0, 4500000.0, 4500000.0, 4500000.0, 4500000.0, -0.020000001415610313, 0.9300000667572021, 0.41200003027915955, 192.0, 0.0, 0.0, 0.0, 0.0, 0.0, 0.0, 0.0, 0.0, 0.0, 1.6292690144101791E9, 2021-08-18 00:43:34.410
94.0, -1176093.46875, 4500000.0, -2873477.0625, 4500000.0, 4500000.0, -1385937.1875, 4500000.0, -2267964.0, 4500000.0, 4500000.0, 4500000.0, 4500000.0, 4500000.0, 4500000.0, 4500000.0, 4500000.0, -0.012000000104308128, 0.9360000491142273, 0.406000018119812, 192.0, 127.5, 80.0, 14.5, 32.0, 6.0, 88.0, 0.0, 0.0, 0.0, 1.6292690144101858E9, 2021-08-18 00:43:34.410
96.0, -1184434.125, 4500000.0, -2872173.5625, 4500000.0, 4500000.0, -1392765.5625, 4500000.0, -2269661.8125, 4500000.0, 4500000.0, 4500000.0, 4500000.0, 4500000.0, 4500000.0, 4500000.0, 4500000.0, -0.012000000104308128, 0.9360000491142273, 0.406000018119812, 192.0, 0.0, 0.0, 0.0, 0.0, 0.0, 0.0, 0.0, 0.0, 0.0, 1.6292690144101925E9, 2021-08-18 00:43:34.410
98.0, -1175362.875, 4500000.0, -2873580.5625, 4500000.0, 4500000.0, -1383831.65625, 4500000.0, -2267269.875, 4500000.0, 4500000.0, 4500000.0, 4500000.0, 4500000.0, 4500000.0, 4500000.0, 4500000.0, -0.012000000104308128, 0.9360000491142273, 0.406000018119812, 192.0, 0.0, 0.0, 0.0, 0.0, 0.0, 0.0, 0.0, 0.0, 0.0, 1.629269014410199E9, 2021-08-18 00:43:34.410
100.0, -1185904.5, 4500000.0, -2872529.625, 4500000.0, 4500000.0, -1395800.8125, 4500000.0, -2270210.0625, 4500000.0, 4500000.0, 4500000.0, 4500000.0, 4500000.0, 4500000.0, 4500000.0, 4500000.0, -0.012000000104308128, 0.9360000491142273, 0.406000018119812, 192.0, 0.0, 0.0, 0.0, 0.0, 0.0, 0.0, 0.0, 0.0, 0.0, 1.6292690144102058E9, 2021-08-18 00:43:34.410
102.0, -1175270.0625, 4500000.0, -2874489.375, 4500000.0, 4500000.0, -1382918.15625, 4500000.0, -2266941.5625, 4500000.0, 4500000.0, 4500000.0, 4500000.0, 4500000.0, 4500000.0, 4500000.0, 4500000.0, -0.012000000104308128, 0.9360000491142273, 0.406000018119812, 192.0, 0.0, 0.0, 0.0, 0.0, 0.0, 0.0, 0.0, 0.0, 0.0, 1.6292690144102125E9, 2021-08-18 00:43:34.410
104.0, -1186674.84375, 4500000.0, -2873201.8125, 4500000.0, 4500000.0, -1398571.5, 4500000.0, -2271271.125, 4500000.0, 4500000.0, 4500000.0, 4500000.0, 4500000.0, 4500000.0, 4500000.0, 4500000.0, -0.014000000432133675, 0.9460000395774841, 0.398000031709671, 192.0, 127.5, 72.0, 14.5, 72.0, 6.0, 56.0, 0.0, 0.0, 0.0, 1.6292690144102192E9, 2021-08-18 00:43:34.410
106.0, -1174394.0625, 4500000.0, -2873694.375, 4500000.0, 4500000.0, -1381587.75, 4500000.0, -2266511.8125, 4500000.0, 4500000.0, 4500000.0, 4500000.0, 4500000.0, 4500000.0, 4500000.0, 4500000.0, -0.014000000432133675, 0.9460000395774841, 0.398000031709671, 192.0, 0.0, 0.0, 0.0, 0.0, 0.0, 0.0, 0.0, 0.0, 0.0, 1.629269014410226E9, 2021-08-18 00:43:34.410
108.0, -1186603.5, 4500000.0, -2873240.4375, 4500000.0, 4500000.0, -1400310.65625, 4500000.0, -2271279.1875, 4500000.0, 4500000.0, 4500000.0, 4500000.0, 4500000.0, 4500000.0, 4500000.0, 4500000.0, -0.014000000432133675, 0.9460000395774841, 0.398000031709671, 192.0, 0.0, 0.0, 0.0, 0.0, 0.0, 0.0, 0.0, 0.0, 0.0, 1.6292690144102328E9, 2021-08-18 00:43:34.410
110.0, -1174737.375, 4500000.0, -2873935.125, 4500000.0, 4500000.0, -1381192.875, 4500000.0, -2266216.875, 4500000.0, 4500000.0, 4500000.0, 4500000.0, 4500000.0, 4500000.0, 4500000.0, 4500000.0, -0.014000000432133675, 0.9460000395774841, 0.398000031709671, 192.0, 0.0, 0.0, 0.0, 0.0, 0.0, 0.0, 0.0, 0.0, 0.0, 1.6292690144102395E9, 2021-08-18 00:43:34.410
112.0, -1186872.1875, 4500000.0, -2872536.75, 4500000.0, 4500000.0, -1401621.65625, 4500000.0, -2272427.25, 4500000.0, 4500000.0, 4500000.0, 4500000.0, 4500000.0, 4500000.0, 4500000.0, 4500000.0, -0.014000000432133675, 0.9460000395774841, 0.398000031709671, 192.0, 0.0, 0.0, 0.0, 0.0, 0.0, 0.0, 0.0, 0.0, 0.0, 1.629269014410246E9, 2021-08-18 00:43:34.410
114.0, -1176017.8125, 4500000.0, -2872741.125, 4500000.0, 4500000.0, -1381984.125, 4500000.0, -2267743.5, 4500000.0, 4500000.0, 4500000.0, 4500000.0, 4500000.0, 4500000.0, 4500000.0, 4500000.0, -0.01600000075995922, 0.9500000476837158, 0.3920000195503235, 192.0, 127.5, 64.0, 14.5, 88.0, 6.0, 32.0, 0.0, 0.0, 0.0, 1.6292690144102528E9, 2021-08-18 00:43:34.410
116.0, -1186566.46875, 4500000.0, -2872229.25, 4500000.0, 4500000.0, -1402159.78125, 4500000.0, -2273340.75, 4500000.0, 4500000.0, 4500000.0, 4500000.0, 4500000.0, 4500000.0, 4500000.0, 4500000.0, -0.01600000075995922, 0.9500000476837158, 0.3920000195503235, 192.0, 0.0, 0.0, 0.0, 0.0, 0.0, 0.0, 0.0, 0.0, 0.0, 1.6292690144102592E9, 2021-08-18 00:43:34.410
118.0, -1176411.09375, 4500000.0, -2871640.3125, 4500000.0, 4500000.0, -1382443.40625, 4500000.0, -2267796.5625, 4500000.0, 4500000.0, 4500000.0, 4500000.0, 4500000.0, 4500000.0, 4500000.0, 4500000.0, -0.01600000075995922, 0.9500000476837158, 0.3920000195503235, 192.0, 0.0, 0.0, 0.0, 0.0, 0.0, 0.0, 0.0, 0.0, 0.0, 1.629269014410266E9, 2021-08-18 00:43:34.410
120.0, -1186187.71875, 4500000.0, -2872781.25, 4500000.0, 4500000.0, -1402509.46875, 4500000.0, -2274498.9375, 4500000.0, 4500000.0, 4500000.0, 4500000.0, 4500000.0, 4500000.0, 4500000.0, 4500000.0, -0.01600000075995922, 0.9500000476837158, 0.3920000195503235, 192.0, 0.0, 0.0, 0.0, 0.0, 0.0, 0.0, 0.0, 0.0, 0.0, 1.629269014410278E9, 2021-08-18 00:43:34.410
122.0, -1178458.125, 4500000.0, -2872722.1875, 4500000.0, 4500000.0, -1384467.9375, 4500000.0, -2269702.6875, 4500000.0, 4500000.0, 4500000.0, 4500000.0, 4500000.0, 4500000.0, 4500000.0, 4500000.0, -0.015000000596046448, 0.9490000605583191, 0.38600002229213715, 192.0, 127.5, 72.0, 14.5, 80.0, 5.5, 112.0, 0.0, 0.0, 0.0, 1.6292690144102864E9, 2021-08-18 00:43:34.410
124.0, -1185254.34375, 4500000.0, -2873057.0625, 4500000.0, 4500000.0, -1401497.25, 4500000.0, -2274902.4375, 4500000.0, 4500000.0, 4500000.0, 4500000.0, 4500000.0, 4500000.0, 4500000.0, 4500000.0, -0.015000000596046448, 0.9490000605583191, 0.38600002229213715, 192.0, 0.0, 0.0, 0.0, 0.0, 0.0, 0.0, 0.0, 0.0, 0.0, 1.629269014410293E9, 2021-08-18 00:43:34.410
126.0, -1180049.25, 4500000.0, -2872531.3125, 4500000.0, 4500000.0, -1386365.25, 4500000.0, -2270475.5625, 4500000.0, 4500000.0, 4500000.0, 4500000.0, 4500000.0, 4500000.0, 4500000.0, 4500000.0, -0.015000000596046448, 0.9490000605583191, 0.38600002229213715, 192.0, 0.0, 0.0, 0.0, 0.0, 0.0, 0.0, 0.0, 0.0, 0.0, 1.6292690144102998E9, 2021-08-18 00:43:34.410
128.0, -1184048.4375, 4500000.0, -2873687.8125, 4500000.0, 4500000.0, -1400413.125, 4500000.0, -2274957.5625, 4500000.0, 4500000.0, 4500000.0, 4500000.0, 4500000.0, 4500000.0, 4500000.0, 4500000.0, -0.015000000596046448, 0.9490000605583191, 0.38600002229213715, 192.0, 0.0, 0.0, 0.0, 0.0, 0.0, 0.0, 0.0, 0.0, 0.0, 1.6292690144103065E9, 2021-08-18 00:43:34.410
130.0, -1181865.09375, 4500000.0, -2872547.4375, 4500000.0, 4500000.0, -1388822.15625, 4500000.0, -2271638.625, 4500000.0, 4500000.0, 4500000.0, 4500000.0, 4500000.0, 4500000.0, 4500000.0, 4500000.0, -0.015000000596046448, 0.9490000605583191, 0.38600002229213715, 192.0, 0.0, 0.0, 0.0, 0.0, 0.0, 0.0, 0.0, 0.0, 0.0, 1.6292690144103131E9, 2021-08-18 00:43:34.410
132.0, -1183020.0, 4500000.0, -2872601.0625, 4500000.0, 4500000.0, -1398528.5625, 4500000.0, -2274781.125, 4500000.0, 4500000.0, 4500000.0, 4500000.0, 4500000.0, 4500000.0, 4500000.0, 4500000.0, -0.015500000678002834, 0.9485000669956207, 0.3790000155568123, 192.0, 127.5, 64.0, 14.5, 80.0, 5.5, 80.0, 0.0, 0.0, 0.0, 1.6292690144103196E9, 2021-08-18 00:43:34.410
134.0, -1183437.375, 4500000.0, -2870588.8125, 4500000.0, 4500000.0, -1391188.40625, 4500000.0, -2272622.4375, 4500000.0, 4500000.0, 4500000.0, 4500000.0, 4500000.0, 4500000.0, 4500000.0, 4500000.0, -0.015500000678002834, 0.9485000669956207, 0.3790000155568123, 192.0, 0.0, 0.0, 0.0, 0.0, 0.0, 0.0, 0.0, 0.0, 0.0, 1.6292690148906412E9, 2021-08-18 00:43:34.890
136.0, -1181578.125, 4500000.0, -2871946.125, 4500000.0, 4500000.0, -1396496.53125, 4500000.0, -2275065.9375, 4500000.0, 4500000.0, 4500000.0, 4500000.0, 4500000.0, 4500000.0, 4500000.0, 4500000.0, -0.015500000678002834, 0.9485000669956207, 0.3790000155568123, 192.0, 0.0, 0.0, 0.0, 0.0, 0.0, 0.0, 0.0, 0.0, 0.0, 1.6292690148906493E9, 2021-08-18 00:43:34.890
138.0, -1185528.46875, 4500000.0, -2870054.625, 4500000.0, 4500000.0, -1394341.125, 4500000.0, -2274213.5625, 4500000.0, 4500000.0, 4500000.0, 4500000.0, 4500000.0, 4500000.0, 4500000.0, 4500000.0, -0.015500000678002834, 0.9485000669956207, 0.3790000155568123, 192.0, 0.0, 0.0, 0.0, 0.0, 0.0, 0.0, 0.0, 0.0, 0.0, 1.6292690148906565E9, 2021-08-18 00:43:34.890
140.0, -1180452.65625, 4500000.0, -2871042.75, 4500000.0, 4500000.0, -1393927.5, 4500000.0, -2274493.125, 4500000.0, 4500000.0, 4500000.0, 4500000.0, 4500000.0, 4500000.0, 4500000.0, 4500000.0, -0.015500000678002834, 0.9485000669956207, 0.3790000155568123, 192.0, 0.0, 0.0, 0.0, 0.0, 0.0, 0.0, 0.0, 0.0, 0.0, 1.6292690148906634E9, 2021-08-18 00:43:34.890
142.0, -1186893.1875, 4500000.0, -2869095.375, 4500000.0, 4500000.0, -1396182.75, 4500000.0, -2274658.3125, 4500000.0, 4500000.0, 4500000.0, 4500000.0, 4500000.0, 4500000.0, 4500000.0, 4500000.0, -0.019750000443309546, 0.9562500566244125, 0.3735000230371952, 192.0, 127.5, 32.0, 15.0, 16.0, 5.5, 64.0, 0.0, 0.0, 0.0, 1.6292690148906703E9, 2021-08-18 00:43:34.890
144.0, -1179697.3125, 4500000.0, -2870419.3125, 4500000.0, 4500000.0, -1391232.46875, 4500000.0, -2274105.75, 4500000.0, 4500000.0, 4500000.0, 4500000.0, 4500000.0, 4500000.0, 4500000.0, 4500000.0, -0.019750000443309546, 0.9562500566244125, 0.3735000230371952, 192.0, 0.0, 0.0, 0.0, 0.0, 0.0, 0.0, 0.0, 0.0, 0.0, 1.6292690148906777E9, 2021-08-18 00:43:34.890
146.0, -1189089.84375, 4500000.0, -2869084.125, 4500000.0, 4500000.0, -1399149.28125, 4500000.0, -2276018.0625, 4500000.0, 4500000.0, 4500000.0, 4500000.0, 4500000.0, 4500000.0, 4500000.0, 4500000.0, -0.019750000443309546, 0.9562500566244125, 0.3735000230371952, 192.0, 0.0, 0.0, 0.0, 0.0, 0.0, 0.0, 0.0, 0.0, 0.0, 1.6292690148906844E9, 2021-08-18 00:43:34.890
148.0, -1179525.09375, 4500000.0, -2870006.8125, 4500000.0, 4500000.0, -1389130.6875, 4500000.0, -2273783.8125, 4500000.0, 4500000.0, 4500000.0, 4500000.0, 4500000.0, 4500000.0, 4500000.0, 4500000.0, -0.019750000443309546, 0.9562500566244125, 0.3735000230371952, 192.0, 0.0, 0.0, 0.0, 0.0, 0.0, 0.0, 0.0, 0.0, 0.0, 1.6292690148906915E9, 2021-08-18 00:43:34.890
150.0, -1191268.40625, 4500000.0, -2869549.125, 4500000.0, 4500000.0, -1402219.3125, 4500000.0, -2277169.3125, 4500000.0, 4500000.0, 4500000.0, 4500000.0, 4500000.0, 4500000.0, 4500000.0, 4500000.0, -0.019750000443309546, 0.9562500566244125, 0.3735000230371952, 192.0, 0.0, 0.0, 0.0, 0.0, 0.0, 0.0, 0.0, 0.0, 0.0, 1.6292690148906984E9, 2021-08-18 00:43:34.890
152.0, -1179778.875, 4500000.0, -2869383.9375, 4500000.0, 4500000.0, -1387537.96875, 4500000.0, -2273060.25, 4500000.0, 4500000.0, 4500000.0, 4500000.0, 4500000.0, 4500000.0, 4500000.0, 4500000.0, -0.018875000765547156, 0.9601250514388084, 0.3727500159293413, 192.0, 127.5, 56.0, 15.0, 16.0, 5.5, 80.0, 0.0, 0.0, 0.0, 1.629269014890705E9, 2021-08-18 00:43:34.890
154.0, -1191944.25, 4500000.0, -2867784.375, 4500000.0, 4500000.0, -1403299.6875, 4500000.0, -2276729.4375, 4500000.0, 4500000.0, 4500000.0, 4500000.0, 4500000.0, 4500000.0, 4500000.0, 4500000.0, -0.018875000765547156, 0.9601250514388084, 0.3727500159293413, 192.0, 0.0, 0.0, 0.0, 0.0, 0.0, 0.0, 0.0, 0.0, 0.0, 1.629269014890718E9, 2021-08-18 00:43:34.890
156.0, -1180856.0625, 4500000.0, -2869592.0625, 4500000.0, 4500000.0, -1387297.125, 4500000.0, -2273028.5625, 4500000.0, 4500000.0, 4500000.0, 4500000.0, 4500000.0, 4500000.0, 4500000.0, 4500000.0, -0.018875000765547156, 0.9601250514388084, 0.3727500159293413, 192.0, 0.0, 0.0, 0.0, 0.0, 0.0, 0.0, 0.0, 0.0, 0.0, 1.629269014890725E9, 2021-08-18 00:43:34.890
158.0, -1192709.25, 4500000.0, -2868148.5, 4500000.0, 4500000.0, -1404777.5625, 4500000.0, -2277311.4375, 4500000.0, 4500000.0, 4500000.0, 4500000.0, 4500000.0, 4500000.0, 4500000.0, 4500000.0, -0.018875000765547156, 0.9601250514388084, 0.3727500159293413, 192.0, 0.0, 0.0, 0.0, 0.0, 0.0, 0.0, 0.0, 0.0, 0.0, 1.6292690148907316E9, 2021-08-18 00:43:34.890
160.0, -1180458.5625, 4500000.0, -2869008.5625, 4500000.0, 4500000.0, -1385429.15625, 4500000.0, -2272259.8125, 4500000.0, 4500000.0, 4500000.0, 4500000.0, 4500000.0, 4500000.0, 4500000.0, 4500000.0, -0.018875000765547156, 0.9601250514388084, 0.3727500159293413, 192.0, 0.0, 0.0, 0.0, 0.0, 0.0, 0.0, 0.0, 0.0, 0.0, 1.6292690148907397E9, 2021-08-18 00:43:34.890
162.0, -1191703.96875, 4500000.0, -2868689.25, 4500000.0, 4500000.0, -1405069.96875, 4500000.0, -2277362.4375, 4500000.0, 4500000.0, 4500000.0, 4500000.0, 4500000.0, 4500000.0, 4500000.0, 4500000.0, -0.01243750040885061, 0.9540625624358654, 0.37137501034885645, 192.0, 127.5, 104.0, 14.5, 80.0, 5.5, 72.0, 0.0, 0.0, 0.0, 1.6292690148907464E9, 2021-08-18 00:43:34.890
164.0, -1180390.40625, 4500000.0, -2868950.0625, 4500000.0, 4500000.0, -1385554.6875, 4500000.0, -2272216.3125, 4500000.0, 4500000.0, 4500000.0, 4500000.0, 4500000.0, 4500000.0, 4500000.0, 4500000.0, -0.01243750040885061, 0.9540625624358654, 0.37137501034885645, 192.0, 0.0, 0.0, 0.0, 0.0, 0.0, 0.0, 0.0, 0.0, 0.0, 1.6292690148907535E9, 2021-08-18 00:43:34.890
166.0, -1190737.78125, 4500000.0, -2868951.0, 4500000.0, 4500000.0, -1405431.46875, 4500000.0, -2277831.9375, 4500000.0, 4500000.0, 4500000.0, 4500000.0, 4500000.0, 4500000.0, 4500000.0, 4500000.0, -0.01243750040885061, 0.9540625624358654, 0.37137501034885645, 192.0, 0.0, 0.0, 0.0, 0.0, 0.0, 0.0, 0.0, 0.0, 0.0, 1.6292690148907604E9, 2021-08-18 00:43:34.890
168.0, -1181262.65625, 4500000.0, -2869005.75, 4500000.0, 4500000.0, -1386664.59375, 4500000.0, -2272826.25, 4500000.0, 4500000.0, 4500000.0, 4500000.0, 4500000.0, 4500000.0, 4500000.0, 4500000.0, -0.01243750040885061, 0.9540625624358654, 0.37137501034885645, 192.0, 0.0, 0.0, 0.0, 0.0, 0.0, 0.0, 0.0, 0.0, 0.0, 1.629269014890767E9, 2021-08-18 00:43:34.890
170.0, -1189593.09375, 4500000.0, -2868871.125, 4500000.0, 4500000.0, -1404811.875, 4500000.0, -2277432.1875, 4500000.0, 4500000.0, 4500000.0, 4500000.0, 4500000.0, 4500000.0, 4500000.0, 4500000.0, -0.01243750040885061, 0.9540625624358654, 0.37137501034885645, 192.0, 0.0, 0.0, 0.0, 0.0, 0.0, 0.0, 0.0, 0.0, 0.0, 1.629269014890774E9, 2021-08-18 00:43:34.890
172.0, -1182456.1875, 4500000.0, -2868788.625, 4500000.0, 4500000.0, -1387890.375, 4500000.0, -2272747.5, 4500000.0, 4500000.0, 4500000.0, 4500000.0, 4500000.0, 4500000.0, 4500000.0, 4500000.0, -0.006000000052154064, 0.9420000314712524, 0.3580000102519989, 192.0, 127.5, 104.0, 14.5, 56.0, 5.5, 24.0, 0.0, 0.0, 0.0, 1.6292690148907816E9, 2021-08-18 00:43:34.890
174.0, -1188689.15625, 4500000.0, -2869113.5625, 4500000.0, 4500000.0, -1403741.71875, 4500000.0, -2277495.5625, 4500000.0, 4500000.0, 4500000.0, 4500000.0, 4500000.0, 4500000.0, 4500000.0, 4500000.0, -0.006000000052154064, 0.9420000314712524, 0.3580000102519989, 192.0, 0.0, 0.0, 0.0, 0.0, 0.0, 0.0, 0.0, 0.0, 0.0, 1.6292690148907883E9, 2021-08-18 00:43:34.890
176.0, -1184085.375, 4500000.0, -2868869.0625, 4500000.0, 4500000.0, -1389652.59375, 4500000.0, -2273328.375, 4500000.0, 4500000.0, 4500000.0, 4500000.0, 4500000.0, 4500000.0, 4500000.0, 4500000.0, -0.006000000052154064, 0.9420000314712524, 0.3580000102519989, 192.0, 0.0, 0.0, 0.0, 0.0, 0.0, 0.0, 0.0, 0.0, 0.0, 1.6292690148907952E9, 2021-08-18 00:43:34.890
178.0, -1187469.28125, 4500000.0, -2869123.3125, 4500000.0, 4500000.0, -1401766.5, 4500000.0, -2276904.9375, 4500000.0, 4500000.0, 4500000.0, 4500000.0, 4500000.0, 4500000.0, 4500000.0, 4500000.0, -0.006000000052154064, 0.9420000314712524, 0.3580000102519989, 192.0, 0.0, 0.0, 0.0, 0.0, 0.0, 0.0, 0.0, 0.0, 0.0, 1.629269014890802E9, 2021-08-18 00:43:34.890
180.0, -1185621.75, 4500000.0, -2868704.25, 4500000.0, 4500000.0, -1390948.125, 4500000.0, -2273823.5625, 4500000.0, 4500000.0, 4500000.0, 4500000.0, 4500000.0, 4500000.0, 4500000.0, 4500000.0, -0.006000000052154064, 0.9420000314712524, 0.3580000102519989, 192.0, 0.0, 0.0, 0.0, 0.0, 0.0, 0.0, 0.0, 0.0, 0.0, 1.6292690148908088E9, 2021-08-18 00:43:34.890
182.0, -1185276.84375, 4500000.0, -2869251.5625, 4500000.0, 4500000.0, -1398563.4375, 4500000.0, -2276711.25, 4500000.0, 4500000.0, 4500000.0, 4500000.0, 4500000.0, 4500000.0, 4500000.0, 4500000.0, -0.010000000707805157, 0.9320000410079956, 0.35200002789497375, 192.0, 127.5, 88.0, 14.5, 16.0, 5.5, 0.0, 0.0, 0.0, 0.0, 1.6292690148908162E9, 2021-08-18 00:43:34.890
184.0, -1186140.5625, 4500000.0, -2868086.8125, 4500000.0, 4500000.0, -1392007.03125, 4500000.0, -2274192.5625, 4500000.0, 4500000.0, 4500000.0, 4500000.0, 4500000.0, 4500000.0, 4500000.0, 4500000.0, -0.010000000707805157, 0.9320000410079956, 0.35200002789497375, 192.0, 0.0, 0.0, 0.0, 0.0, 0.0, 0.0, 0.0, 0.0, 0.0, 1.6292690148908231E9, 2021-08-18 00:43:34.890
186.0, -1183852.59375, 4500000.0, -2870020.125, 4500000.0, 4500000.0, -1396968.5625, 4500000.0, -2276440.3125, 4500000.0, 4500000.0, 4500000.0, 4500000.0, 4500000.0, 4500000.0, 4500000.0, 4500000.0, -0.010000000707805157, 0.9320000410079956, 0.35200002789497375, 192.0, 0.0, 0.0, 0.0, 0.0, 0.0, 0.0, 0.0, 0.0, 0.0, 1.62926901489083E9, 2021-08-18 00:43:34.890
188.0, -1189833.9375, 4500000.0, -2868629.25, 4500000.0, 4500000.0, -1397221.21875, 4500000.0, -2276037.9375, 4500000.0, 4500000.0, 4500000.0, 4500000.0, 4500000.0, 4500000.0, 4500000.0, 4500000.0, -0.010000000707805157, 0.9320000410079956, 0.35200002789497375, 192.0, 0.0, 0.0, 0.0, 0.0, 0.0, 0.0, 0.0, 0.0, 0.0, 1.629269014890839E9, 2021-08-18 00:43:34.890
190.0, -1183611.1875, 4500000.0, -2869065.375, 4500000.0, 4500000.0, -1395033.09375, 4500000.0, -2275485.375, 4500000.0, 4500000.0, 4500000.0, 4500000.0, 4500000.0, 4500000.0, 4500000.0, 4500000.0, -0.010000000707805157, 0.9320000410079956, 0.35200002789497375, 192.0, 0.0, 0.0, 0.0, 0.0, 0.0, 0.0, 0.0, 0.0, 0.0, 1.6292690148908467E9, 2021-08-18 00:43:34.890
192.0, -1192306.875, 4500000.0, -2867894.8125, 4500000.0, 4500000.0, -1400458.6875, 4500000.0, -2276800.875, 4500000.0, 4500000.0, 4500000.0, 4500000.0, 4500000.0, 4500000.0, 4500000.0, 4500000.0, -0.012000000104308128, 0.9360000491142273, 0.34200000762939453, 192.0, 127.5, 80.0, 14.5, 32.0, 5.0, 88.0, 0.0, 0.0, 0.0, 1.6292690148908536E9, 2021-08-18 00:43:34.890
194.0, -1185290.25, 4500000.0, -2868963.375, 4500000.0, 4500000.0, -1395009.46875, 4500000.0, -2275918.3125, 4500000.0, 4500000.0, 4500000.0, 4500000.0, 4500000.0, 4500000.0, 4500000.0, 4500000.0, -0.012000000104308128, 0.9360000491142273, 0.34200000762939453, 192.0, 0.0, 0.0, 0.0, 0.0, 0.0, 0.0, 0.0, 0.0, 0.0, 1.6292690148908603E9, 2021-08-18 00:43:34.890
196.0, -1196047.5, 4500000.0, -2867626.6875, 4500000.0, 4500000.0, -1404129.5625, 4500000.0, -2277830.25, 4500000.0, 4500000.0, 4500000.0, 4500000.0, 4500000.0, 4500000.0, 4500000.0, 4500000.0, -0.012000000104308128, 0.9360000491142273, 0.34200000762939453, 192.0, 0.0, 0.0, 0.0, 0.0, 0.0, 0.0, 0.0, 0.0, 0.0, 1.6292690148908672E9, 2021-08-18 00:43:34.890
198.0, -1184945.90625, 4500000.0, -2868169.5, 4500000.0, 4500000.0, -1392471.09375, 4500000.0, -2274244.6875, 4500000.0, 4500000.0, 4500000.0, 4500000.0, 4500000.0, 4500000.0, 4500000.0, 4500000.0, -0.012000000104308128, 0.9360000491142273, 0.34200000762939453, 192.0, 0.0, 0.0, 0.0, 0.0, 0.0, 0.0, 0.0, 0.0, 0.0, 1.629269014890874E9, 2021-08-18 00:43:34.890
200.0, -1195193.53125, 4500000.0, -2867820.1875, 4500000.0, 4500000.0, -1404808.6875, 4500000.0, -2277892.5, 4500000.0, 4500000.0, 4500000.0, 4500000.0, 4500000.0, 4500000.0, 4500000.0, 4500000.0, -0.012000000104308128, 0.9360000491142273, 0.34200000762939453, 192.0, 0.0, 0.0, 0.0, 0.0, 0.0, 0.0, 0.0, 0.0, 0.0, 1.6292690148908808E9, 2021-08-18 00:43:34.890
202.0, -1181212.21875, 4500000.0, -2868012.9375, 4500000.0, 4500000.0, -1388283.09375, 4500000.0, -2273306.4375, 4500000.0, 4500000.0, 4500000.0, 4500000.0, 4500000.0, 4500000.0, 4500000.0, 4500000.0, -0.02800000086426735, 0.940000057220459, 0.33400002121925354, 192.0, 127.5, 16.0, 14.5, 48.0, 5.0, 56.0, 0.0, 0.0, 0.0, 1.6292690148908875E9, 2021-08-18 00:43:34.890
204.0, -1191762.9375, 4500000.0, -2867774.0625, 4500000.0, 4500000.0, -1403453.625, 4500000.0, -2277859.3125, 4500000.0, 4500000.0, 4500000.0, 4500000.0, 4500000.0, 4500000.0, 4500000.0, 4500000.0, -0.02800000086426735, 0.940000057220459, 0.33400002121925354, 192.0, 0.0, 0.0, 0.0, 0.0, 0.0, 0.0, 0.0, 0.0, 0.0, 1.6292690148908944E9, 2021-08-18 00:43:34.890
206.0, -1176869.15625, 4500000.0, -2869290.1875, 4500000.0, 4500000.0, -1384359.0, 4500000.0, -2273232.375, 4500000.0, 4500000.0, 4500000.0, 4500000.0, 4500000.0, 4500000.0, 4500000.0, 4500000.0, -0.02800000086426735, 0.940000057220459, 0.33400002121925354, 192.0, 0.0, 0.0, 0.0, 0.0, 0.0, 0.0, 0.0, 0.0, 0.0, 1.629269014890901E9, 2021-08-18 00:43:34.890
208.0, -1188880.6875, 4500000.0, -2868608.8125, 4500000.0, 4500000.0, -1403831.34375, 4500000.0, -2279182.125, 4500000.0, 4500000.0, 4500000.0, 4500000.0, 4500000.0, 4500000.0, 4500000.0, 4500000.0, -0.02800000086426735, 0.940000057220459, 0.33400002121925354, 192.0, 0.0, 0.0, 0.0, 0.0, 0.0, 0.0, 0.0, 0.0, 0.0, 1.629269014890908E9, 2021-08-18 00:43:34.890
210.0, -1183701.84375, 4500000.0, -2868200.625, 4500000.0, 4500000.0, -1389973.96875, 4500000.0, -2276164.125, 4500000.0, 4500000.0, 4500000.0, 4500000.0, 4500000.0, 4500000.0, 4500000.0, 4500000.0, -0.033000001683831215, 0.9380000531673431, 0.3310000151395798, 192.0, 127.0, 104.0, 14.5, 32.0, 5.0, 32.0, 0.0, 0.0, 0.0, 1.629269014890915E9, 2021-08-18 00:43:34.890
212.0, -1198089.1875, 4500000.0, -2866380.375, 4500000.0, 4500000.0, -1410073.3125, 4500000.0, -2281410.9375, 4500000.0, 4500000.0, 4500000.0, 4500000.0, 4500000.0, 4500000.0, 4500000.0, 4500000.0, -0.033000001683831215, 0.9380000531673431, 0.3310000151395798, 192.0, 0.0, 0.0, 0.0, 0.0, 0.0, 0.0, 0.0, 0.0, 0.0, 1.6292690148909218E9, 2021-08-18 00:43:34.890
214.0, -1192584.28125, 4500000.0, -2866000.125, 4500000.0, 4500000.0, -1394683.3125, 4500000.0, -2277277.6875, 4500000.0, 4500000.0, 4500000.0, 4500000.0, 4500000.0, 4500000.0, 4500000.0, 4500000.0, -0.033000001683831215, 0.9380000531673431, 0.3310000151395798, 192.0, 0.0, 0.0, 0.0, 0.0, 0.0, 0.0, 0.0, 0.0, 0.0, 1.6292690148909285E9, 2021-08-18 00:43:34.890
216.0, -1209864.09375, 4500000.0, -2864674.125, 4500000.0, 4500000.0, -1418250.84375, 4500000.0, -2283892.125, 4500000.0, 4500000.0, 4500000.0, 4500000.0, 4500000.0, 4500000.0, 4500000.0, 4500000.0, -0.033000001683831215, 0.9380000531673431, 0.3310000151395798, 192.0, 0.0, 0.0, 0.0, 0.0, 0.0, 0.0, 0.0, 0.0, 0.0, 1.6292690148909354E9, 2021-08-18 00:43:34.890
218.0, -1209839.4375, 4500000.0, -2862196.6875, 4500000.0, 4500000.0, -1404927.28125, 4500000.0, -2279492.0625, 4500000.0, 4500000.0, 4500000.0, 4500000.0, 4500000.0, 4500000.0, 4500000.0, 4500000.0, -0.033000001683831215, 0.9380000531673431, 0.3310000151395798, 192.0, 0.0, 0.0, 0.0, 0.0, 0.0, 0.0, 0.0, 0.0, 0.0, 1.6292690148909423E9, 2021-08-18 00:43:34.890
220.0, -1225450.96875, 4500000.0, -2860652.25, 4500000.0, 4500000.0, -1425606.0, 4500000.0, -2284664.4375, 4500000.0, 4500000.0, 4500000.0, 4500000.0, 4500000.0, 4500000.0, 4500000.0, 4500000.0, -0.040500001050531864, 0.9480000585317612, 0.3295000120997429, 192.0, 127.0, 64.0, 14.5, 120.0, 5.0, 32.0, 0.0, 0.0, 0.0, 1.6292690148909492E9, 2021-08-18 00:43:34.890
222.0, -1224653.25, 4500000.0, -2856276.0, 4500000.0, 4500000.0, -1411362.375, 4500000.0, -2279103.75, 4500000.0, 4500000.0, 4500000.0, 4500000.0, 4500000.0, 4500000.0, 4500000.0, 4500000.0, -0.040500001050531864, 0.9480000585317612, 0.3295000120997429, 192.0, 0.0, 0.0, 0.0, 0.0, 0.0, 0.0, 0.0, 0.0, 0.0, 1.6292690148909583E9, 2021-08-18 00:43:34.890
224.0, -1233231.5625, 4500000.0, -2854042.875, 4500000.0, 4500000.0, -1426457.90625, 4500000.0, -2281941.0, 4500000.0, 4500000.0, 4500000.0, 4500000.0, 4500000.0, 4500000.0, 4500000.0, 4500000.0, -0.040500001050531864, 0.9480000585317612, 0.3295000120997429, 192.0, 0.0, 0.0, 0.0, 0.0, 0.0, 0.0, 0.0, 0.0, 0.0, 1.6292690148909652E9, 2021-08-18 00:43:34.890
226.0, -1231645.3125, 4500000.0, -2850725.4375, 4500000.0, 4500000.0, -1413958.21875, 4500000.0, -2276761.6875, 4500000.0, 4500000.0, 4500000.0, 4500000.0, 4500000.0, 4500000.0, 4500000.0, 4500000.0, -0.040500001050531864, 0.9480000585317612, 0.3295000120997429, 192.0, 0.0, 0.0, 0.0, 0.0, 0.0, 0.0, 0.0, 0.0, 0.0, 1.629269014890972E9, 2021-08-18 00:43:34.890
228.0, -1236698.53125, 4500000.0, -2848829.0625, 4500000.0, 4500000.0, -1425108.75, 4500000.0, -2278675.125, 4500000.0, 4500000.0, 4500000.0, 4500000.0, 4500000.0, 4500000.0, 4500000.0, 4500000.0, -0.040500001050531864, 0.9480000585317612, 0.3295000120997429, 192.0, 0.0, 0.0, 0.0, 0.0, 0.0, 0.0, 0.0, 0.0, 0.0, 1.6292690148909788E9, 2021-08-18 00:43:34.890
230.0, -1234653.09375, 4500000.0, -2845692.0, 4500000.0, 4500000.0, -1413250.6875, 4500000.0, -2273059.6875, 4500000.0, 4500000.0, 4500000.0, 4500000.0, 4500000.0, 4500000.0, 4500000.0, 4500000.0, -0.04525000089779496, 0.9580000564455986, 0.32975001260638237, 192.0, 127.0, 56.0, 15.0, 32.0, 5.0, 40.0, 0.0, 0.0, 0.0, 1.6292690148909855E9, 2021-08-18 00:43:34.890
232.0, -1229649.1875, 4500000.0, -2844782.25, 4500000.0, 4500000.0, -1415924.34375, 4500000.0, -2272501.3125, 4500000.0, 4500000.0, 4500000.0, 4500000.0, 4500000.0, 4500000.0, 4500000.0, 4500000.0, -0.04525000089779496, 0.9580000564455986, 0.32975001260638237, 192.0, 0.0, 0.0, 0.0, 0.0, 0.0, 0.0, 0.0, 0.0, 0.0, 1.6292690148909924E9, 2021-08-18 00:43:34.890
234.0, -1226963.25, 4500000.0, -2843260.875, 4500000.0, 4500000.0, -1407594.46875, 4500000.0, -2269249.3125, 4500000.0, 4500000.0, 4500000.0, 4500000.0, 4500000.0, 4500000.0, 4500000.0, 4500000.0, -0.04525000089779496, 0.9580000564455986, 0.32975001260638237, 192.0, 0.0, 0.0, 0.0, 0.0, 0.0, 0.0, 0.0, 0.0, 0.0, 1.6292690148909993E9, 2021-08-18 00:43:34.890
236.0, -1218590.4375, 4500000.0, -2844328.875, 4500000.0, 4500000.0, -1406727.5625, 4500000.0, -2268993.375, 4500000.0, 4500000.0, 4500000.0, 4500000.0, 4500000.0, 4500000.0, 4500000.0, 4500000.0, -0.04525000089779496, 0.9580000564455986, 0.32975001260638237, 192.0, 0.0, 0.0, 0.0, 0.0, 0.0, 0.0, 0.0, 0.0, 0.0, 1.629269014891006E9, 2021-08-18 00:43:34.891
238.0, -1219654.6875, 4500000.0, -2843552.625, 4500000.0, 4500000.0, -1404349.5, 4500000.0, -2268319.6875, 4500000.0, 4500000.0, 4500000.0, 4500000.0, 4500000.0, 4500000.0, 4500000.0, 4500000.0, -0.04525000089779496, 0.9580000564455986, 0.32975001260638237, 192.0, 0.0, 0.0, 0.0, 0.0, 0.0, 0.0, 0.0, 0.0, 0.0, 1.629269014891013E9, 2021-08-18 00:43:34.891
240.0, -1209222.0, 4500000.0, -2844757.5, 4500000.0, 4500000.0, -1399695.375, 4500000.0, -2267670.0, 4500000.0, 4500000.0, 4500000.0, 4500000.0, 4500000.0, 4500000.0, 4500000.0, 4500000.0, -0.04362500202842057, 0.9570000432431698, 0.31887502036988735, 192.0, 127.0, 88.0, 14.5, 112.0, 4.5, 80.0, 0.0, 0.0, 0.0, 1.6292690148910196E9, 2021-08-18 00:43:34.891
242.0, -1214083.78125, 4500000.0, -2844128.8125, 4500000.0, 4500000.0, -1403237.4375, 4500000.0, -2268587.4375, 4500000.0, 4500000.0, 4500000.0, 4500000.0, 4500000.0, 4500000.0, 4500000.0, 4500000.0, -0.04362500202842057, 0.9570000432431698, 0.31887502036988735, 192.0, 0.0, 0.0, 0.0, 0.0, 0.0, 0.0, 0.0, 0.0, 0.0, 1.6292690148910265E9, 2021-08-18 00:43:34.891
244.0, -1202555.0625, 4500000.0, -2845977.375, 4500000.0, 4500000.0, -1394687.15625, 4500000.0, -2266579.5, 4500000.0, 4500000.0, 4500000.0, 4500000.0, 4500000.0, 4500000.0, 4500000.0, 4500000.0, -0.04362500202842057, 0.9570000432431698, 0.31887502036988735, 192.0, 0.0, 0.0, 0.0, 0.0, 0.0, 0.0, 0.0, 0.0, 0.0, 1.6292690148910332E9, 2021-08-18 00:43:34.891
246.0, -1209615.75, 4500000.0, -2845885.125, 4500000.0, 4500000.0, -1402373.25, 4500000.0, -2268399.0, 4500000.0, 4500000.0, 4500000.0, 4500000.0, 4500000.0, 4500000.0, 4500000.0, 4500000.0, -0.04362500202842057, 0.9570000432431698, 0.31887502036988735, 192.0, 0.0, 0.0, 0.0, 0.0, 0.0, 0.0, 0.0, 0.0, 0.0, 1.62926901489104E9, 2021-08-18 00:43:34.891
248.0, -1197170.34375, 4500000.0, -2847725.0625, 4500000.0, 4500000.0, -1390628.90625, 4500000.0, -2266546.6875, 4500000.0, 4500000.0, 4500000.0, 4500000.0, 4500000.0, 4500000.0, 4500000.0, 4500000.0, -0.04362500202842057, 0.9570000432431698, 0.31887502036988735, 192.0, 0.0, 0.0, 0.0, 0.0, 0.0, 0.0, 0.0, 0.0, 0.0, 1.629269014891047E9, 2021-08-18 00:43:34.891
250.0, -1206004.96875, 4500000.0, -2846900.625, 4500000.0, 4500000.0, -1401863.625, 4500000.0, -2269697.25, 4500000.0, 4500000.0, 4500000.0, 4500000.0, 4500000.0, 4500000.0, 4500000.0, 4500000.0, -0.03681250161025673, 0.9505000542849302, 0.30543752294033766, 192.0, 127.5, 8.0, 14.5, 64.0, 4.5, 16.0, 0.0, 0.0, 0.0, 1.6292690148910627E9, 2021-08-18 00:43:34.891
252.0, -1192387.875, 4500000.0, -2848508.4375, 4500000.0, 4500000.0, -1386518.15625, 4500000.0, -2266525.875, 4500000.0, 4500000.0, 4500000.0, 4500000.0, 4500000.0, 4500000.0, 4500000.0, 4500000.0, -0.03681250161025673, 0.9505000542849302, 0.30543752294033766, 192.0, 0.0, 0.0, 0.0, 0.0, 0.0, 0.0, 0.0, 0.0, 0.0, 1.62926901489107E9, 2021-08-18 00:43:34.891
254.0, -1202458.5, 4500000.0, -2847962.25, 4500000.0, 4500000.0, -1401496.6875, 4500000.0, -2270843.625, 4500000.0, 4500000.0, 4500000.0, 4500000.0, 4500000.0, 4500000.0, 4500000.0, 4500000.0, -0.03681250161025673, 0.9505000542849302, 0.30543752294033766, 192.0, 0.0, 0.0, 0.0, 0.0, 0.0, 0.0, 0.0, 0.0, 0.0, 1.629269015370609E9, 2021-08-18 00:43:35.370
0.0, -1189471.3125, 4500000.0, -2849668.125, 4500000.0, 4500000.0, -1384873.40625, 4500000.0, -2267466.1875, 4500000.0, 4500000.0, 4500000.0, 4500000.0, 4500000.0, 4500000.0, 4500000.0, 4500000.0, -0.03681250161025673, 0.9505000542849302, 0.30543752294033766, 192.0, 0.0, 0.0, 0.0, 0.0, 0.0, 0.0, 0.0, 0.0, 0.0, 1.6292690153706295E9, 2021-08-18 00:43:35.370
2.0, -1200204.375, 4500000.0, -2849769.5625, 4500000.0, 4500000.0, -1403028.75, 4500000.0, -2273007.1875, 4500000.0, 4500000.0, 4500000.0, 4500000.0, 4500000.0, 4500000.0, 4500000.0, 4500000.0, -0.03681250161025673, 0.9505000542849302, 0.30543752294033766, 192.0, 0.0, 0.0, 0.0, 0.0, 0.0, 0.0, 0.0, 0.0, 0.0, 1.6292690153706367E9, 2021-08-18 00:43:35.370
4.0, -1187818.5, 4500000.0, -2851185.75, 4500000.0, 4500000.0, -1384758.65625, 4500000.0, -2269040.0625, 4500000.0, 4500000.0, 4500000.0, 4500000.0, 4500000.0, 4500000.0, 4500000.0, 4500000.0, -0.014000000432133675, 0.968000054359436, 0.28200000524520874, 192.0, 127.5, 72.0, 15.0, 32.0, 4.0, 104.0, 0.0, 0.0, 0.0, 1.6292690153706436E9, 2021-08-18 00:43:35.370
6.0, -1197970.125, 4500000.0, -2851642.875, 4500000.0, 4500000.0, -1403176.875, 4500000.0, -2274596.0625, 4500000.0, 4500000.0, 4500000.0, 4500000.0, 4500000.0, 4500000.0, 4500000.0, 4500000.0, -0.014000000432133675, 0.968000054359436, 0.28200000524520874, 192.0, 0.0, 0.0, 0.0, 0.0, 0.0, 0.0, 0.0, 0.0, 0.0, 1.6292690153706634E9, 2021-08-18 00:43:35.370
8.0, -1187220.9375, 4500000.0, -2853384.5625, 4500000.0, 4500000.0, -1385323.5, 4500000.0, -2270805.5625, 4500000.0, 4500000.0, 4500000.0, 4500000.0, 4500000.0, 4500000.0, 4500000.0, 4500000.0, -0.014000000432133675, 0.968000054359436, 0.28200000524520874, 192.0, 0.0, 0.0, 0.0, 0.0, 0.0, 0.0, 0.0, 0.0, 0.0, 1.6292690153706703E9, 2021-08-18 00:43:35.370
10.0, -1195960.125, 4500000.0, -2854417.875, 4500000.0, 4500000.0, -1403176.875, 4500000.0, -2276436.5625, 4500000.0, 4500000.0, 4500000.0, 4500000.0, 4500000.0, 4500000.0, 4500000.0, 4500000.0, -0.014000000432133675, 0.968000054359436, 0.28200000524520874, 192.0, 0.0, 0.0, 0.0, 0.0, 0.0, 0.0, 0.0, 0.0, 0.0, 1.6292690153706768E9, 2021-08-18 00:43:35.370
12.0, -1186546.03125, 4500000.0, -2854913.4375, 4500000.0, 4500000.0, -1385009.15625, 4500000.0, -2271844.6875, 4500000.0, 4500000.0, 4500000.0, 4500000.0, 4500000.0, 4500000.0, 4500000.0, 4500000.0, -0.014000000432133675, 0.968000054359436, 0.28200000524520874, 192.0, 0.0, 0.0, 0.0, 0.0, 0.0, 0.0, 0.0, 0.0, 0.0, 1.6292690153706837E9, 2021-08-18 00:43:35.370
14.0, -1192640.625, 4500000.0, -2855001.9375, 4500000.0, 4500000.0, -1400273.0625, 4500000.0, -2276829.1875, 4500000.0, 4500000.0, 4500000.0, 4500000.0, 4500000.0, 4500000.0, 4500000.0, 4500000.0, -0.00800000037997961, 0.9740000367164612, 0.2760000228881836, 192.0, 127.5, 96.0, 15.0, 56.0, 4.0, 80.0, 0.0, 0.0, 0.0, 1.62926901537069E9, 2021-08-18 00:43:35.370
16.0, -1185782.15625, 4500000.0, -2855468.0625, 4500000.0, 4500000.0, -1385863.21875, 4500000.0, -2273190.5625, 4500000.0, 4500000.0, 4500000.0, 4500000.0, 4500000.0, 4500000.0, 4500000.0, 4500000.0, -0.00800000037997961, 0.9740000367164612, 0.2760000228881836, 192.0, 0.0, 0.0, 0.0, 0.0, 0.0, 0.0, 0.0, 0.0, 0.0, 1.6292690153706968E9, 2021-08-18 00:43:35.370
18.0, -1189670.8125, 4500000.0, -2856352.6875, 4500000.0, 4500000.0, -1398952.875, 4500000.0, -2277928.875, 4500000.0, 4500000.0, 4500000.0, 4500000.0, 4500000.0, 4500000.0, 4500000.0, 4500000.0, -0.00800000037997961, 0.9740000367164612, 0.2760000228881836, 192.0, 0.0, 0.0, 0.0, 0.0, 0.0, 0.0, 0.0, 0.0, 0.0, 1.6292690153707037E9, 2021-08-18 00:43:35.370
20.0, -1185770.90625, 4500000.0, -2856177.375, 4500000.0, 4500000.0, -1386832.5, 4500000.0, -2274959.8125, 4500000.0, 4500000.0, 4500000.0, 4500000.0, 4500000.0, 4500000.0, 4500000.0, 4500000.0, -0.00800000037997961, 0.9740000367164612, 0.2760000228881836, 192.0, 0.0, 0.0, 0.0, 0.0, 0.0, 0.0, 0.0, 0.0, 0.0, 1.62926901537071E9, 2021-08-18 00:43:35.370
22.0, -1187106.09375, 4500000.0, -2857670.25, 4500000.0, 4500000.0, -1396854.375, 4500000.0, -2279079.0, 4500000.0, 4500000.0, 4500000.0, 4500000.0, 4500000.0, 4500000.0, 4500000.0, 4500000.0, -0.00800000037997961, 0.9740000367164612, 0.2760000228881836, 192.0, 0.0, 0.0, 0.0, 0.0, 0.0, 0.0, 0.0, 0.0, 0.0, 1.6292690153707168E9, 2021-08-18 00:43:35.370
24.0, -1185846.0, 4500000.0, -2857253.4375, 4500000.0, 4500000.0, -1388345.34375, 4500000.0, -2277233.8125, 4500000.0, 4500000.0, 4500000.0, 4500000.0, 4500000.0, 4500000.0, 4500000.0, 4500000.0, -0.004000000189989805, 0.9640000462532043, 0.26600000262260437, 192.0, 127.5, 112.0, 15.0, 16.0, 4.0, 40.0, 0.0, 0.0, 0.0, 1.6292690153707235E9, 2021-08-18 00:43:35.370
26.0, -1183417.5, 4500000.0, -2859510.1875, 4500000.0, 4500000.0, -1393426.96875, 4500000.0, -2279793.1875, 4500000.0, 4500000.0, 4500000.0, 4500000.0, 4500000.0, 4500000.0, 4500000.0, 4500000.0, -0.004000000189989805, 0.9640000462532043, 0.26600000262260437, 192.0, 0.0, 0.0, 0.0, 0.0, 0.0, 0.0, 0.0, 0.0, 0.0, 1.62926901537073E9, 2021-08-18 00:43:35.370
28.0, -1184776.3125, 4500000.0, -2859305.8125, 4500000.0, 4500000.0, -1388743.875, 4500000.0, -2278893.9375, 4500000.0, 4500000.0, 4500000.0, 4500000.0, 4500000.0, 4500000.0, 4500000.0, 4500000.0, -0.004000000189989805, 0.9640000462532043, 0.26600000262260437, 192.0, 0.0, 0.0, 0.0, 0.0, 0.0, 0.0, 0.0, 0.0, 0.0, 1.6292690153707368E9, 2021-08-18 00:43:35.370
30.0, -1178825.625, 4500000.0, -2861364.75, 4500000.0, 4500000.0, -1389440.15625, 4500000.0, -2280579.0, 4500000.0, 4500000.0, 4500000.0, 4500000.0, 4500000.0, 4500000.0, 4500000.0, 4500000.0, -0.004000000189989805, 0.9640000462532043, 0.26600000262260437, 192.0, 0.0, 0.0, 0.0, 0.0, 0.0, 0.0, 0.0, 0.0, 0.0, 1.6292690153707435E9, 2021-08-18 00:43:35.370
32.0, -1182323.71875, 4500000.0, -2861352.9375, 4500000.0, 4500000.0, -1389256.21875, 4500000.0, -2281005.375, 4500000.0, 4500000.0, 4500000.0, 4500000.0, 4500000.0, 4500000.0, 4500000.0, 4500000.0, -0.004000000189989805, 0.9640000462532043, 0.26600000262260437, 192.0, 0.0, 0.0, 0.0, 0.0, 0.0, 0.0, 0.0, 0.0, 0.0, 1.62926901537075E9, 2021-08-18 00:43:35.370
34.0, -1175893.96875, 4500000.0, -2863471.875, 4500000.0, 4500000.0, -1386075.09375, 4500000.0, -2282319.75, 4500000.0, 4500000.0, 4500000.0, 4500000.0, 4500000.0, 4500000.0, 4500000.0, 4500000.0, 0.0020000000949949026, 0.9600000381469727, 0.25600001215934753, 192.0, 0.0, 8.0, 15.0, 0.0, 4.0, 0.0, 0.0, 0.0, 0.0, 1.6292690153707592E9, 2021-08-18 00:43:35.370
36.0, -1182730.3125, 4500000.0, -2862439.6875, 4500000.0, 4500000.0, -1390827.375, 4500000.0, -2283727.3125, 4500000.0, 4500000.0, 4500000.0, 4500000.0, 4500000.0, 4500000.0, 4500000.0, 4500000.0, 0.0020000000949949026, 0.9600000381469727, 0.25600001215934753, 192.0, 0.0, 0.0, 0.0, 0.0, 0.0, 0.0, 0.0, 0.0, 0.0, 1.629269015370766E9, 2021-08-18 00:43:35.370
38.0, -1172333.0625, 4500000.0, -2863710.0, 4500000.0, 4500000.0, -1383364.40625, 4500000.0, -2282870.625, 4500000.0, 4500000.0, 4500000.0, 4500000.0, 4500000.0, 4500000.0, 4500000.0, 4500000.0, 0.0020000000949949026, 0.9600000381469727, 0.25600001215934753, 192.0, 0.0, 0.0, 0.0, 0.0, 0.0, 0.0, 0.0, 0.0, 0.0, 1.6292690153707728E9, 2021-08-18 00:43:35.370
40.0, -1180964.90625, 4500000.0, -2863185.375, 4500000.0, 4500000.0, -1393023.09375, 4500000.0, -2285671.875, 4500000.0, 4500000.0, 4500000.0, 4500000.0, 4500000.0, 4500000.0, 4500000.0, 4500000.0, 0.0020000000949949026, 0.9600000381469727, 0.25600001215934753, 192.0, 0.0, 0.0, 0.0, 0.0, 0.0, 0.0, 0.0, 0.0, 0.0, 1.6292690153707795E9, 2021-08-18 00:43:35.370
42.0, -1167373.59375, 4500000.0, -2864806.5, 4500000.0, 4500000.0, -1379738.625, 4500000.0, -2282714.0625, 4500000.0, 4500000.0, 4500000.0, 4500000.0, 4500000.0, 4500000.0, 4500000.0, 4500000.0, 0.0020000000949949026, 0.9600000381469727, 0.25600001215934753, 192.0, 0.0, 0.0, 0.0, 0.0, 0.0, 0.0, 0.0, 0.0, 0.0, 1.629269015370787E9, 2021-08-18 00:43:35.370
44.0, -1176543.0, 4500000.0, -2866287.5625, 4500000.0, 4500000.0, -1392903.9375, 4500000.0, -2287325.8125, 4500000.0, 4500000.0, 4500000.0, 4500000.0, 4500000.0, 4500000.0, 4500000.0, 4500000.0, 0.012000000104308128, 0.9520000219345093, 0.25200000405311584, 192.0, 0.0, 48.0, 14.5, 96.0, 3.5, 112.0, 0.0, 0.0, 0.0, 1.6292690153707933E9, 2021-08-18 00:43:35.370
46.0, -1162641.1875, 4500000.0, -2867674.875, 4500000.0, 4500000.0, -1377998.90625, 4500000.0, -2284194.0, 4500000.0, 4500000.0, 4500000.0, 4500000.0, 4500000.0, 4500000.0, 4500000.0, 4500000.0, 0.012000000104308128, 0.9520000219345093, 0.25200000405311584, 192.0, 0.0, 0.0, 0.0, 0.0, 0.0, 0.0, 0.0, 0.0, 0.0, 1.6292690153708E9, 2021-08-18 00:43:35.370
48.0, -1173146.8125, 4500000.0, -2868236.625, 4500000.0, 4500000.0, -1393264.5, 4500000.0, -2289429.75, 4500000.0, 4500000.0, 4500000.0, 4500000.0, 4500000.0, 4500000.0, 4500000.0, 4500000.0, 0.012000000104308128, 0.9520000219345093, 0.25200000405311584, 192.0, 0.0, 0.0, 0.0, 0.0, 0.0, 0.0, 0.0, 0.0, 0.0, 1.6292690153708074E9, 2021-08-18 00:43:35.370
50.0, -1161036.09375, 4500000.0, -2870118.375, 4500000.0, 4500000.0, -1376633.71875, 4500000.0, -2286240.0, 4500000.0, 4500000.0, 4500000.0, 4500000.0, 4500000.0, 4500000.0, 4500000.0, 4500000.0, 0.012000000104308128, 0.9520000219345093, 0.25200000405311584, 192.0, 0.0, 0.0, 0.0, 0.0, 0.0, 0.0, 0.0, 0.0, 0.0, 1.629269015370814E9, 2021-08-18 00:43:35.370
52.0, -1174911.1875, 4500000.0, -2870401.125, 4500000.0, 4500000.0, -1395441.375, 4500000.0, -2292911.8125, 4500000.0, 4500000.0, 4500000.0, 4500000.0, 4500000.0, 4500000.0, 4500000.0, 4500000.0, 0.009000000078231096, 0.956000030040741, 0.24700000882148743, 192.0, 0.0, 24.0, 15.0, 0.0, 3.5, 72.0, 0.0, 0.0, 0.0, 1.6292690153708208E9, 2021-08-18 00:43:35.370
54.0, -1167093.65625, 4500000.0, -2871249.1875, 4500000.0, 4500000.0, -1380032.0625, 4500000.0, -2289902.25, 4500000.0, 4500000.0, 4500000.0, 4500000.0, 4500000.0, 4500000.0, 4500000.0, 4500000.0, 0.009000000078231096, 0.956000030040741, 0.24700000882148743, 192.0, 0.0, 0.0, 0.0, 0.0, 0.0, 0.0, 0.0, 0.0, 0.0, 1.6292690153708274E9, 2021-08-18 00:43:35.370
56.0, -1180491.28125, 4500000.0, -2870289.5625, 4500000.0, 4500000.0, -1398927.65625, 4500000.0, -2295112.875, 4500000.0, 4500000.0, 4500000.0, 4500000.0, 4500000.0, 4500000.0, 4500000.0, 4500000.0, 0.009000000078231096, 0.956000030040741, 0.24700000882148743, 192.0, 0.0, 0.0, 0.0, 0.0, 0.0, 0.0, 0.0, 0.0, 0.0, 1.629269015370834E9, 2021-08-18 00:43:35.370
58.0, -1173197.8125, 4500000.0, -2870850.0, 4500000.0, 4500000.0, -1382667.5625, 4500000.0, -2291431.125, 4500000.0, 4500000.0, 4500000.0, 4500000.0, 4500000.0, 4500000.0, 4500000.0, 4500000.0, 0.009000000078231096, 0.956000030040741, 0.24700000882148743, 192.0, 0.0, 0.0, 0.0, 0.0, 0.0, 0.0, 0.0, 0.0, 0.0, 1.6292690153708408E9, 2021-08-18 00:43:35.370
60.0, -1182406.3125, 4500000.0, -2871021.75, 4500000.0, 4500000.0, -1399827.84375, 4500000.0, -2296505.4375, 4500000.0, 4500000.0, 4500000.0, 4500000.0, 4500000.0, 4500000.0, 4500000.0, 4500000.0, 0.009000000078231096, 0.956000030040741, 0.24700000882148743, 192.0, 0.0, 0.0, 0.0, 0.0, 0.0, 0.0, 0.0, 0.0, 0.0, 1.6292690153708475E9, 2021-08-18 00:43:35.370
62.0, -1172552.4375, 4500000.0, -2869893.0, 4500000.0, 4500000.0, -1381825.40625, 4500000.0, -2290943.625, 4500000.0, 4500000.0, 4500000.0, 4500000.0, 4500000.0, 4500000.0, 4500000.0, 4500000.0, 0.0024999999441206455, 0.9630000293254852, 0.24450001120567322, 192.0, 127.5, 112.0, 15.0, 40.0, 3.5, 72.0, 0.0, 0.0, 0.0, 1.629269015370854E9, 2021-08-18 00:43:35.370
64.0, -1178424.84375, 4500000.0, -2871425.625, 4500000.0, 4500000.0, -1397910.5625, 4500000.0, -2296443.1875, 4500000.0, 4500000.0, 4500000.0, 4500000.0, 4500000.0, 4500000.0, 4500000.0, 4500000.0, 0.0024999999441206455, 0.9630000293254852, 0.24450001120567322, 192.0, 0.0, 0.0, 0.0, 0.0, 0.0, 0.0, 0.0, 0.0, 0.0, 1.6292690153708608E9, 2021-08-18 00:43:35.370
66.0, -1172444.625, 4500000.0, -2871215.4375, 4500000.0, 4500000.0, -1383673.40625, 4500000.0, -2293211.0625, 4500000.0, 4500000.0, 4500000.0, 4500000.0, 4500000.0, 4500000.0, 4500000.0, 4500000.0, 0.0024999999441206455, 0.9630000293254852, 0.24450001120567322, 192.0, 0.0, 0.0, 0.0, 0.0, 0.0, 0.0, 0.0, 0.0, 0.0, 1.6292690153708675E9, 2021-08-18 00:43:35.370
68.0, -1174928.34375, 4500000.0, -2872457.25, 4500000.0, 4500000.0, -1395784.125, 4500000.0, -2297121.1875, 4500000.0, 4500000.0, 4500000.0, 4500000.0, 4500000.0, 4500000.0, 4500000.0, 4500000.0, 0.0024999999441206455, 0.9630000293254852, 0.24450001120567322, 192.0, 0.0, 0.0, 0.0, 0.0, 0.0, 0.0, 0.0, 0.0, 0.0, 1.6292690153708763E9, 2021-08-18 00:43:35.370
70.0, -1170649.6875, 4500000.0, -2872377.9375, 4500000.0, 4500000.0, -1384234.03125, 4500000.0, -2294125.125, 4500000.0, 4500000.0, 4500000.0, 4500000.0, 4500000.0, 4500000.0, 4500000.0, 4500000.0, 0.0024999999441206455, 0.9630000293254852, 0.24450001120567322, 192.0, 0.0, 0.0, 0.0, 0.0, 0.0, 0.0, 0.0, 0.0, 0.0, 1.6292690153708827E9, 2021-08-18 00:43:35.370
72.0, -1169637.375, 4500000.0, -2874095.0625, 4500000.0, 4500000.0, -1392541.875, 4500000.0, -2297809.5, 4500000.0, 4500000.0, 4500000.0, 4500000.0, 4500000.0, 4500000.0, 4500000.0, 4500000.0, -0.016750001115724444, 0.9715000241994858, 0.24425001442432404, 192.0, 127.0, 112.0, 15.0, 80.0, 3.5, 80.0, 0.0, 0.0, 0.0, 1.6292690153708897E9, 2021-08-18 00:43:35.370
74.0, -1169045.71875, 4500000.0, -2874011.25, 4500000.0, 4500000.0, -1385699.0625, 4500000.0, -2296398.5625, 4500000.0, 4500000.0, 4500000.0, 4500000.0, 4500000.0, 4500000.0, 4500000.0, 4500000.0, -0.016750001115724444, 0.9715000241994858, 0.24425001442432404, 192.0, 0.0, 0.0, 0.0, 0.0, 0.0, 0.0, 0.0, 0.0, 0.0, 1.629269015370896E9, 2021-08-18 00:43:35.370
76.0, -1166729.90625, 4500000.0, -2875378.125, 4500000.0, 4500000.0, -1390300.125, 4500000.0, -2299123.3125, 4500000.0, 4500000.0, 4500000.0, 4500000.0, 4500000.0, 4500000.0, 4500000.0, 4500000.0, -0.016750001115724444, 0.9715000241994858, 0.24425001442432404, 192.0, 0.0, 0.0, 0.0, 0.0, 0.0, 0.0, 0.0, 0.0, 0.0, 1.6292690153709028E9, 2021-08-18 00:43:35.370
78.0, -1172024.625, 4500000.0, -2874963.5625, 4500000.0, 4500000.0, -1389435.84375, 4500000.0, -2299470.9375, 4500000.0, 4500000.0, 4500000.0, 4500000.0, 4500000.0, 4500000.0, 4500000.0, 4500000.0, -0.016750001115724444, 0.9715000241994858, 0.24425001442432404, 192.0, 0.0, 0.0, 0.0, 0.0, 0.0, 0.0, 0.0, 0.0, 0.0, 1.6292690153709097E9, 2021-08-18 00:43:35.370
80.0, -1170437.8125, 4500000.0, -2875864.6875, 4500000.0, 4500000.0, -1392735.5625, 4500000.0, -2301428.25, 4500000.0, 4500000.0, 4500000.0, 4500000.0, 4500000.0, 4500000.0, 4500000.0, 4500000.0, -0.016750001115724444, 0.9715000241994858, 0.24425001442432404, 192.0, 0.0, 0.0, 0.0, 0.0, 0.0, 0.0, 0.0, 0.0, 0.0, 1.629269015370916E9, 2021-08-18 00:43:35.370
82.0, -1182756.09375, 4500000.0, -2873779.6875, 4500000.0, 4500000.0, -1397735.71875, 4500000.0, -2302679.8125, 4500000.0, 4500000.0, 4500000.0, 4500000.0, 4500000.0, 4500000.0, 4500000.0, 4500000.0, -0.03237500076647848, 0.9827500209212303, 0.24712500721216202, 192.0, 127.0, 64.0, 15.5, 8.0, 3.5, 104.0, 0.0, 0.0, 0.0, 1.6292690153709228E9, 2021-08-18 00:43:35.370
84.0, -1179902.25, 4500000.0, -2873682.0, 4500000.0, 4500000.0, -1395160.78125, 4500000.0, -2302389.5625, 4500000.0, 4500000.0, 4500000.0, 4500000.0, 4500000.0, 4500000.0, 4500000.0, 4500000.0, -0.03237500076647848, 0.9827500209212303, 0.24712500721216202, 192.0, 0.0, 0.0, 0.0, 0.0, 0.0, 0.0, 0.0, 0.0, 0.0, 1.6292690153709292E9, 2021-08-18 00:43:35.370
86.0, -1190845.6875, 4500000.0, -2872537.125, 4500000.0, 4500000.0, -1402748.71875, 4500000.0, -2303921.625, 4500000.0, 4500000.0, 4500000.0, 4500000.0, 4500000.0, 4500000.0, 4500000.0, 4500000.0, -0.03237500076647848, 0.9827500209212303, 0.24712500721216202, 192.0, 0.0, 0.0, 0.0, 0.0, 0.0, 0.0, 0.0, 0.0, 0.0, 1.629269015370936E9, 2021-08-18 00:43:35.370
88.0, -1182357.0, 4500000.0, -2873020.5, 4500000.0, 4500000.0, -1394404.96875, 4500000.0, -2301935.25, 4500000.0, 4500000.0, 4500000.0, 4500000.0, 4500000.0, 4500000.0, 4500000.0, 4500000.0, -0.03237500076647848, 0.9827500209212303, 0.24712500721216202, 192.0, 0.0, 0.0, 0.0, 0.0, 0.0, 0.0, 0.0, 0.0, 0.0, 1.6292690153709426E9, 2021-08-18 00:43:35.370
90.0, -1193474.25, 4500000.0, -2870908.5, 4500000.0, 4500000.0, -1405233.5625, 4500000.0, -2303860.5, 4500000.0, 4500000.0, 4500000.0, 4500000.0, 4500000.0, 4500000.0, 4500000.0, 4500000.0, -0.03237500076647848, 0.9827500209212303, 0.24712500721216202, 192.0, 0.0, 0.0, 0.0, 0.0, 0.0, 0.0, 0.0, 0.0, 0.0, 1.6292690153709493E9, 2021-08-18 00:43:35.370
92.0, -1182898.21875, 4500000.0, -2871908.4375, 4500000.0, 4500000.0, -1393747.78125, 4500000.0, -2300807.625, 4500000.0, 4500000.0, 4500000.0, 4500000.0, 4500000.0, 4500000.0, 4500000.0, 4500000.0, -0.036000002175569534, 0.9960000514984131, 0.26600000262260437, 192.0, 127.0, 112.0, 15.5, 16.0, 4.0, 40.0, 0.0, 0.0, 0.0, 1.6292690153709557E9, 2021-08-18 00:43:35.370
94.0, -1194173.15625, 4500000.0, -2869961.25, 4500000.0, 4500000.0, -1407730.125, 4500000.0, -2303962.5, 4500000.0, 4500000.0, 4500000.0, 4500000.0, 4500000.0, 4500000.0, 4500000.0, 4500000.0, -0.036000002175569534, 0.9960000514984131, 0.26600000262260437, 192.0, 0.0, 0.0, 0.0, 0.0, 0.0, 0.0, 0.0, 0.0, 0.0, 1.6292690153709624E9, 2021-08-18 00:43:35.370
96.0, -1182247.03125, 4500000.0, -2870533.125, 4500000.0, 4500000.0, -1392682.96875, 4500000.0, -2299934.8125, 4500000.0, 4500000.0, 4500000.0, 4500000.0, 4500000.0, 4500000.0, 4500000.0, 4500000.0, -0.036000002175569534, 0.9960000514984131, 0.26600000262260437, 192.0, 0.0, 0.0, 0.0, 0.0, 0.0, 0.0, 0.0, 0.0, 0.0, 1.629269015370969E9, 2021-08-18 00:43:35.370
98.0, -1195014.84375, 4500000.0, -2869242.9375, 4500000.0, 4500000.0, -1410223.03125, 4500000.0, -2304486.0, 4500000.0, 4500000.0, 4500000.0, 4500000.0, 4500000.0, 4500000.0, 4500000.0, 4500000.0, -0.036000002175569534, 0.9960000514984131, 0.26600000262260437, 192.0, 0.0, 0.0, 0.0, 0.0, 0.0, 0.0, 0.0, 0.0, 0.0, 1.6292690153709755E9, 2021-08-18 00:43:35.370
100.0, -1184391.75, 4500000.0, -2869556.8125, 4500000.0, 4500000.0, -1393733.8125, 4500000.0, -2300314.125, 4500000.0, 4500000.0, 4500000.0, 4500000.0, 4500000.0, 4500000.0, 4500000.0, 4500000.0, -0.036000002175569534, 0.9960000514984131, 0.26600000262260437, 192.0, 0.0, 0.0, 0.0, 0.0, 0.0, 0.0, 0.0, 0.0, 0.0, 1.6292690153709822E9, 2021-08-18 00:43:35.370
102.0, -1197767.34375, 4500000.0, -2868043.5, 4500000.0, 4500000.0, -1412683.125, 4500000.0, -2305105.125, 4500000.0, 4500000.0, 4500000.0, 4500000.0, 4500000.0, 4500000.0, 4500000.0, 4500000.0, -0.026000000536441803, 0.9940000176429749, 0.27800002694129944, 192.0, 127.5, 24.0, 15.5, 8.0, 4.0, 88.0, 0.0, 0.0, 0.0, 1.6292690153709908E9, 2021-08-18 00:43:35.370
104.0, -1187882.34375, 4500000.0, -2867139.5625, 4500000.0, 4500000.0, -1394581.40625, 4500000.0, -2300076.0, 4500000.0, 4500000.0, 4500000.0, 4500000.0, 4500000.0, 4500000.0, 4500000.0, 4500000.0, -0.026000000536441803, 0.9940000176429749, 0.27800002694129944, 192.0, 0.0, 0.0, 0.0, 0.0, 0.0, 0.0, 0.0, 0.0, 0.0, 1.6292690153709977E9, 2021-08-18 00:43:35.370
106.0, -1199792.4375, 4500000.0, -2866655.625, 4500000.0, 4500000.0, -1413859.03125, 4500000.0, -2305508.0625, 4500000.0, 4500000.0, 4500000.0, 4500000.0, 4500000.0, 4500000.0, 4500000.0, 4500000.0, -0.026000000536441803, 0.9940000176429749, 0.27800002694129944, 192.0, 0.0, 0.0, 0.0, 0.0, 0.0, 0.0, 0.0, 0.0, 0.0, 1.629269015371004E9, 2021-08-18 00:43:35.371
108.0, -1191030.75, 4500000.0, -2866322.0625, 4500000.0, 4500000.0, -1396948.78125, 4500000.0, -2301225.5625, 4500000.0, 4500000.0, 4500000.0, 4500000.0, 4500000.0, 4500000.0, 4500000.0, 4500000.0, -0.026000000536441803, 0.9940000176429749, 0.27800002694129944, 192.0, 0.0, 0.0, 0.0, 0.0, 0.0, 0.0, 0.0, 0.0, 0.0, 1.6292690153710108E9, 2021-08-18 00:43:35.371
110.0, -1200400.21875, 4500000.0, -2865787.125, 4500000.0, 4500000.0, -1414798.3125, 4500000.0, -2305847.625, 4500000.0, 4500000.0, 4500000.0, 4500000.0, 4500000.0, 4500000.0, 4500000.0, 4500000.0, -0.026000000536441803, 0.9940000176429749, 0.27800002694129944, 192.0, 0.0, 0.0, 0.0, 0.0, 0.0, 0.0, 0.0, 0.0, 0.0, 1.6292690153710175E9, 2021-08-18 00:43:35.371
112.0, -1194227.34375, 4500000.0, -2864481.9375, 4500000.0, 4500000.0, -1398959.34375, 4500000.0, -2301022.6875, 4500000.0, 4500000.0, 4500000.0, 4500000.0, 4500000.0, 4500000.0, 4500000.0, 4500000.0, -0.036000002175569534, 1.002000093460083, 0.30800002813339233, 192.0, 127.0, 112.0, 15.5, 40.0, 4.5, 80.0, 0.0, 0.0, 0.0, 1.629269015371024E9, 2021-08-18 00:43:35.371
114.0, -1201032.1875, 4500000.0, -2862766.5, 4500000.0, 4500000.0, -1414216.3125, 4500000.0, -2304828.375, 4500000.0, 4500000.0, 4500000.0, 4500000.0, 4500000.0, 4500000.0, 4500000.0, 4500000.0, -0.036000002175569534, 1.002000093460083, 0.30800002813339233, 192.0, 0.0, 0.0, 0.0, 0.0, 0.0, 0.0, 0.0, 0.0, 0.0, 1.6292690153710306E9, 2021-08-18 00:43:35.371
116.0, -1197968.53125, 4500000.0, -2862901.125, 4500000.0, 4500000.0, -1402263.28125, 4500000.0, -2301536.625, 4500000.0, 4500000.0, 4500000.0, 4500000.0, 4500000.0, 4500000.0, 4500000.0, 4500000.0, -0.036000002175569534, 1.002000093460083, 0.30800002813339233, 192.0, 0.0, 0.0, 0.0, 0.0, 0.0, 0.0, 0.0, 0.0, 0.0, 1.6292690153710372E9, 2021-08-18 00:43:35.371
118.0, -1202188.6875, 4500000.0, -2862976.125, 4500000.0, 4500000.0, -1415540.71875, 4500000.0, -2305018.6875, 4500000.0, 4500000.0, 4500000.0, 4500000.0, 4500000.0, 4500000.0, 4500000.0, 4500000.0, -0.036000002175569534, 1.002000093460083, 0.30800002813339233, 192.0, 0.0, 0.0, 0.0, 0.0, 0.0, 0.0, 0.0, 0.0, 0.0, 1.6292690156765492E9, 2021-08-18 00:43:35.676
120.0, -1201945.125, 4500000.0, -2862219.1875, 4500000.0, 4500000.0, -1406423.34375, 4500000.0, -2302141.875, 4500000.0, 4500000.0, 4500000.0, 4500000.0, 4500000.0, 4500000.0, 4500000.0, 4500000.0, -0.036000002175569534, 1.002000093460083, 0.30800002813339233, 192.0, 0.0, 0.0, 0.0, 0.0, 0.0, 0.0, 0.0, 0.0, 0.0, 1.629269015676622E9, 2021-08-18 00:43:35.676
122.0, -1202164.03125, 4500000.0, -2862094.3125, 4500000.0, 4500000.0, -1414460.90625, 4500000.0, -2303961.375, 4500000.0, 4500000.0, 4500000.0, 4500000.0, 4500000.0, 4500000.0, 4500000.0, 4500000.0, -0.058000002056360245, 0.9760000705718994, 0.32600000500679016, 192.0, 127.0, 24.0, 15.0, 64.0, 5.0, 24.0, 0.0, 0.0, 0.0, 1.6292690156766312E9, 2021-08-18 00:43:35.676
124.0, -1202903.25, 4500000.0, -2860374.0, 4500000.0, 4500000.0, -1407948.0, 4500000.0, -2301086.625, 4500000.0, 4500000.0, 4500000.0, 4500000.0, 4500000.0, 4500000.0, 4500000.0, 4500000.0, -0.058000002056360245, 0.9760000705718994, 0.32600000500679016, 192.0, 0.0, 0.0, 0.0, 0.0, 0.0, 0.0, 0.0, 0.0, 0.0, 1.6292690156766384E9, 2021-08-18 00:43:35.676
126.0, -1199972.625, 4500000.0, -2861354.0625, 4500000.0, 4500000.0, -1412827.40625, 4500000.0, -2302408.5, 4500000.0, 4500000.0, 4500000.0, 4500000.0, 4500000.0, 4500000.0, 4500000.0, 4500000.0, -0.058000002056360245, 0.9760000705718994, 0.32600000500679016, 192.0, 0.0, 0.0, 0.0, 0.0, 0.0, 0.0, 0.0, 0.0, 0.0, 1.6292690156766615E9, 2021-08-18 00:43:35.676
128.0, -1204153.125, 4500000.0, -2860011.75, 4500000.0, 4500000.0, -1411346.8125, 4500000.0, -2301526.5, 4500000.0, 4500000.0, 4500000.0, 4500000.0, 4500000.0, 4500000.0, 4500000.0, 4500000.0, -0.058000002056360245, 0.9760000705718994, 0.32600000500679016, 192.0, 0.0, 0.0, 0.0, 0.0, 0.0, 0.0, 0.0, 0.0, 0.0, 1.629269015676688E9, 2021-08-18 00:43:35.676
130.0, -1197309.75, 4500000.0, -2860392.75, 4500000.0, 4500000.0, -1410005.25, 4500000.0, -2300567.8125, 4500000.0, 4500000.0, 4500000.0, 4500000.0, 4500000.0, 4500000.0, 4500000.0, 4500000.0, -0.058000002056360245, 0.9760000705718994, 0.32600000500679016, 192.0, 0.0, 0.0, 0.0, 0.0, 0.0, 0.0, 0.0, 0.0, 0.0, 1.6292690156766992E9, 2021-08-18 00:43:35.676
132.0, -1204640.8125, 4500000.0, -2860376.0625, 4500000.0, 4500000.0, -1414100.4375, 4500000.0, -2301646.125, 4500000.0, 4500000.0, 4500000.0, 4500000.0, 4500000.0, 4500000.0, 4500000.0, 4500000.0, -0.07400000095367432, 0.9440000653266907, 0.34200000762939453, 192.0, 126.5, 88.0, 14.5, 64.0, 5.0, 88.0, 0.0, 0.0, 0.0, 1.6292690156767092E9, 2021-08-18 00:43:35.676
134.0, -1196846.25, 4500000.0, -2862278.25, 4500000.0, 4500000.0, -1410102.28125, 4500000.0, -2301453.0, 4500000.0, 4500000.0, 4500000.0, 4500000.0, 4500000.0, 4500000.0, 4500000.0, 4500000.0, -0.07400000095367432, 0.9440000653266907, 0.34200000762939453, 192.0, 0.0, 0.0, 0.0, 0.0, 0.0, 0.0, 0.0, 0.0, 0.0, 1.629269015676718E9, 2021-08-18 00:43:35.676
136.0, -1205189.53125, 4500000.0, -2859713.0625, 4500000.0, 4500000.0, -1416763.875, 4500000.0, -2302286.0625, 4500000.0, 4500000.0, 4500000.0, 4500000.0, 4500000.0, 4500000.0, 4500000.0, 4500000.0, -0.07400000095367432, 0.9440000653266907, 0.34200000762939453, 192.0, 0.0, 0.0, 0.0, 0.0, 0.0, 0.0, 0.0, 0.0, 0.0, 1.6292690156767316E9, 2021-08-18 00:43:35.676
138.0, -1194797.0625, 4500000.0, -2860681.3125, 4500000.0, 4500000.0, -1407275.8125, 4500000.0, -2299820.0625, 4500000.0, 4500000.0, 4500000.0, 4500000.0, 4500000.0, 4500000.0, 4500000.0, 4500000.0, -0.07400000095367432, 0.9440000653266907, 0.34200000762939453, 192.0, 0.0, 0.0, 0.0, 0.0, 0.0, 0.0, 0.0, 0.0, 0.0, 1.629269015676748E9, 2021-08-18 00:43:35.676
140.0, -1206280.6875, 4500000.0, -2860315.5, 4500000.0, 4500000.0, -1419704.0625, 4500000.0, -2303746.3125, 4500000.0, 4500000.0, 4500000.0, 4500000.0, 4500000.0, 4500000.0, 4500000.0, 4500000.0, -0.08900000154972076, 0.9460000693798065, 0.3490000069141388, 192.0, 126.0, 96.0, 14.5, 80.0, 5.5, 16.0, 0.0, 0.0, 0.0, 1.6292690156767573E9, 2021-08-18 00:43:35.676
142.0, -1194146.90625, 4500000.0, -2861187.1875, 4500000.0, 4500000.0, -1406171.8125, 4500000.0, -2300069.4375, 4500000.0, 4500000.0, 4500000.0, 4500000.0, 4500000.0, 4500000.0, 4500000.0, 4500000.0, -0.08900000154972076, 0.9460000693798065, 0.3490000069141388, 192.0, 0.0, 0.0, 0.0, 0.0, 0.0, 0.0, 0.0, 0.0, 0.0, 1.629269015676766E9, 2021-08-18 00:43:35.676
144.0, -1206283.40625, 4500000.0, -2860788.5625, 4500000.0, 4500000.0, -1421559.65625, 4500000.0, -2304356.8125, 4500000.0, 4500000.0, 4500000.0, 4500000.0, 4500000.0, 4500000.0, 4500000.0, 4500000.0, -0.08900000154972076, 0.9460000693798065, 0.3490000069141388, 192.0, 0.0, 0.0, 0.0, 0.0, 0.0, 0.0, 0.0, 0.0, 0.0, 1.6292690156767752E9, 2021-08-18 00:43:35.676
146.0, -1193739.1875, 4500000.0, -2861248.875, 4500000.0, 4500000.0, -1405575.28125, 4500000.0, -2300112.9375, 4500000.0, 4500000.0, 4500000.0, 4500000.0, 4500000.0, 4500000.0, 4500000.0, 4500000.0, -0.08900000154972076, 0.9460000693798065, 0.3490000069141388, 192.0, 0.0, 0.0, 0.0, 0.0, 0.0, 0.0, 0.0, 0.0, 0.0, 1.6292690156767836E9, 2021-08-18 00:43:35.676
148.0, -1205631.09375, 4500000.0, -2860587.9375, 4500000.0, 4500000.0, -1423343.8125, 4500000.0, -2304998.8125, 4500000.0, 4500000.0, 4500000.0, 4500000.0, 4500000.0, 4500000.0, 4500000.0, 4500000.0, -0.08900000154972076, 0.9460000693798065, 0.3490000069141388, 192.0, 0.0, 0.0, 0.0, 0.0, 0.0, 0.0, 0.0, 0.0, 0.0, 1.629269015676794E9, 2021-08-18 00:43:35.676
150.0, -1194154.40625, 4500000.0, -2861511.75, 4500000.0, 4500000.0, -1406330.0625, 4500000.0, -2300813.0625, 4500000.0, 4500000.0, 4500000.0, 4500000.0, 4500000.0, 4500000.0, 4500000.0, 4500000.0, -0.11250000447034836, 0.9370000511407852, 0.35750001668930054, 192.0, 125.5, 96.0, 14.5, 0.0, 5.5, 56.0, 0.0, 0.0, 0.0, 1.6292690156768026E9, 2021-08-18 00:43:35.676
