%OpenBCI Raw EEG Data
%Number of channels = 16
%Sample Rate = 125 Hz
%Board = OpenBCI_GUI$BoardCytonSerialDaisy
Sample Index, EXG Channel 0, EXG Channel 1, EXG Channel 2, EXG Channel 3, EXG Channel 4, EXG Channel 5, EXG Channel 6, EXG Channel 7, EXG Channel 8, EXG Channel 9, EXG Channel 10, EXG Channel 11, EXG Channel 12, EXG Channel 13, EXG Channel 14, EXG Channel 15, Accel Channel 0, Accel Channel 1, Accel Channel 2, Other, Other, Other, Other, Other, Other, Other, Analog Channel 0, Analog Channel 1, Analog Channel 2, Timestamp, Timestamp (Formatted)
0.0, -2995841.625, -2936266.5, -4257061.5, -4500000.375, -4500000.375, -4204294.5, -3169520.625, -3727778.25, 0.0, 0.0, 0.0, 0.0, 0.0, 0.0, 0.0, 0.0, 0.0560000017285347, 0.48500001430511475, 0.12200000882148743, 192.0, 1.5, 64.0, 15.0, 40.0, 3.5, 80.0, 0.0, 0.0, 0.0, 1.6298570579162488E9, 2021-08-24 20:04:17.916
62.0, -3014289.1875, -2972752.125, -4254066.0, -4500000.375, -4500000.375, -4201378.875, -3195412.5, -3728024.25, -4500000.375, -4500000.375, -4500000.375, 4500000.0, 4500000.0, -4500000.375, -4500000.375, -4500000.375, 0.0560000017285347, 0.48500001430511475, 0.12200000882148743, 192.0, 0.0, 0.0, 0.0, 0.0, 0.0, 0.0, 0.0, 0.0, 0.0, 1.6298570579162557E9, 2021-08-24 20:04:17.916
64.0, -2994859.875, -2935313.8125, -4256610.375, -4500000.375, -4500000.375, -4203999.375, -3167016.0, -3727199.625, -4500000.375, -4500000.375, -4500000.375, 4500000.0, 4500000.0, -4500000.375, -4500000.375, -4500000.375, 0.0560000017285347, 0.48500001430511475, 0.12200000882148743, 192.0, 0.0, 0.0, 0.0, 0.0, 0.0, 0.0, 0.0, 0.0, 0.0, 1.6298570579162624E9, 2021-08-24 20:04:17.916
66.0, -3014621.8125, -2972798.625, -4253557.5, -4500000.375, -4500000.375, -4200924.375, -3196857.0, -3728031.75, -4500000.375, -4500000.375, -4500000.375, 4500000.0, 4500000.0, -4500000.375, -4500000.375, -4500000.375, 0.0560000017285347, 0.48500001430511475, 0.12200000882148743, 192.0, 0.0, 0.0, 0.0, 0.0, 0.0, 0.0, 0.0, 0.0, 0.0, 1.62985705791627E9, 2021-08-24 20:04:17.916
68.0, -2994489.1875, -2935743.0, -4256854.875, -4500000.375, -4500000.375, -4204215.0, -3165665.625, -3726614.25, -4500000.375, -4500000.375, -4500000.375, 4500000.0, 4500000.0, -4500000.375, -4500000.375, -4500000.375, 0.0560000017285347, 0.48500001430511475, 0.12200000882148743, 192.0, 0.0, 0.0, 0.0, 0.0, 0.0, 0.0, 0.0, 0.0, 0.0, 1.6298570579162767E9, 2021-08-24 20:04:17.916
70.0, -3014684.625, -2972008.5, -4253753.625, -4500000.375, -4500000.375, -4201117.125, -3197807.625, -3728333.25, -4500000.375, -4500000.375, -4500000.375, 4500000.0, 4500000.0, -4500000.375, -4500000.375, -4500000.375, 0.0860000029206276, 0.7315000295639038, 0.1860000044107437, 192.0, 1.5, 80.0, 15.0, 72.0, 3.5, 104.0, 0.0, 0.0, 0.0, 1.6298570579162834E9, 2021-08-24 20:04:17.916
72.0, -2995647.9375, -2937570.5625, -4257051.375, -4500000.375, -4500000.375, -4204411.875, -3165506.25, -3726716.25, -4500000.375, -4500000.375, -4500000.375, 4500000.0, 4500000.0, -4500000.375, -4500000.375, -4500000.375, 0.0860000029206276, 0.7315000295639038, 0.1860000044107437, 192.0, 0.0, 0.0, 0.0, 0.0, 0.0, 0.0, 0.0, 0.0, 0.0, 1.62985705791629E9, 2021-08-24 20:04:17.916
74.0, -3014325.75, -2970053.8125, -4253702.625, -4500000.375, -4500000.375, -4201133.625, -3197801.625, -3728731.5, -4500000.375, -4500000.375, -4500000.375, 4500000.0, 4500000.0, -4500000.375, -4500000.375, -4500000.375, 0.0860000029206276, 0.7315000295639038, 0.1860000044107437, 192.0, 0.0, 0.0, 0.0, 0.0, 0.0, 0.0, 0.0, 0.0, 0.0, 1.6298570579162965E9, 2021-08-24 20:04:17.916
76.0, -2996931.0, -2940602.625, -4257279.375, -4500000.375, -4500000.375, -4204738.875, -3166609.125, -3726916.875, -4500000.375, -4500000.375, -4500000.375, 4500000.0, 4500000.0, -4500000.375, -4500000.375, -4500000.375, 0.0860000029206276, 0.7315000295639038, 0.1860000044107437, 192.0, 0.0, 0.0, 0.0, 0.0, 0.0, 0.0, 0.0, 0.0, 0.0, 1.6298570579163032E9, 2021-08-24 20:04:17.916
78.0, -3013100.4375, -2967329.625, -4254501.375, -4500000.375, -4500000.375, -4202025.0, -3197186.625, -3729243.0, -4500000.375, -4500000.375, -4500000.375, 4500000.0, 4500000.0, -4500000.375, -4500000.375, -4500000.375, 0.0860000029206276, 0.7315000295639038, 0.1860000044107437, 192.0, 0.0, 0.0, 0.0, 0.0, 0.0, 0.0, 0.0, 0.0, 0.0, 1.6298570579163098E9, 2021-08-24 20:04:17.916
80.0, -2998419.75, -2944300.6875, -4256776.125, -4500000.375, -4500000.375, -4204150.125, -3168069.375, -3726330.375, -4500000.375, -4500000.375, -4500000.375, 4500000.0, 4500000.0, -4500000.375, -4500000.375, -4500000.375, 0.10600000247359276, 0.8557500243186951, 0.21900000423192978, 192.0, 1.5, 120.0, 15.0, 80.0, 3.5, 112.0, 0.0, 0.0, 0.0, 1.6298570579163165E9, 2021-08-24 20:04:17.916
82.0, -3011308.875, -2963283.9375, -4254294.0, -4500000.375, -4500000.375, -4201624.5, -3194458.125, -3728783.625, -4500000.375, -4500000.375, -4500000.375, 4500000.0, 4500000.0, -4500000.375, -4500000.375, -4500000.375, 0.10600000247359276, 0.8557500243186951, 0.21900000423192978, 192.0, 0.0, 0.0, 0.0, 0.0, 0.0, 0.0, 0.0, 0.0, 0.0, 1.629857057916323E9, 2021-08-24 20:04:17.916
84.0, -3000762.9375, -2948636.25, -4256927.25, -4500000.375, -4500000.375, -4204237.875, -3170874.375, -3726931.5, -4500000.375, -4500000.375, -4500000.375, 4500000.0, 4500000.0, -4500000.375, -4500000.375, -4500000.375, 0.10600000247359276, 0.8557500243186951, 0.21900000423192978, 192.0, 0.0, 0.0, 0.0, 0.0, 0.0, 0.0, 0.0, 0.0, 0.0, 1.6298570579163296E9, 2021-08-24 20:04:17.916
86.0, -3008910.9375, -2958861.375, -4254642.75, -4500000.375, -4500000.375, -4201862.625, -3191580.75, -3728469.375, -4500000.375, -4500000.375, -4500000.375, 4500000.0, 4500000.0, -4500000.375, -4500000.375, -4500000.375, 0.10600000247359276, 0.8557500243186951, 0.21900000423192978, 192.0, 0.0, 0.0, 0.0, 0.0, 0.0, 0.0, 0.0, 0.0, 0.0, 1.629857057916336E9, 2021-08-24 20:04:17.916
88.0, -3002747.8125, -2953235.8125, -4256050.875, -4500000.375, -4500000.375, -4203225.375, -3173595.75, -3726185.625, -4500000.375, -4500000.375, -4500000.375, 4500000.0, 4500000.0, -4500000.375, -4500000.375, -4500000.375, 0.10600000247359276, 0.8557500243186951, 0.21900000423192978, 192.0, 0.0, 0.0, 0.0, 0.0, 0.0, 0.0, 0.0, 0.0, 0.0, 1.6298570579163427E9, 2021-08-24 20:04:17.916
90.0, -3006433.125, -2954117.0625, -4254925.125, -4500000.375, -4500000.375, -4202099.25, -3187721.625, -3728431.875, -4500000.375, -4500000.375, -4500000.375, 4500000.0, 4500000.0, -4500000.375, -4500000.375, -4500000.375, 0.11300000362098217, 0.9208750426769257, 0.23850001022219658, 192.0, 1.5, 96.0, 15.0, 104.0, 4.0, 8.0, 0.0, 0.0, 0.0, 1.6298570579163492E9, 2021-08-24 20:04:17.916
92.0, -3005423.4375, -2957964.0, -4255929.375, -4500000.375, -4500000.375, -4203062.25, -3177558.75, -3726735.375, -4500000.375, -4500000.375, -4500000.375, 4500000.0, 4500000.0, -4500000.375, -4500000.375, -4500000.375, 0.11300000362098217, 0.9208750426769257, 0.23850001022219658, 192.0, 0.0, 0.0, 0.0, 0.0, 0.0, 0.0, 0.0, 0.0, 0.0, 1.629857057916356E9, 2021-08-24 20:04:17.916
94.0, -3003934.3125, -2949355.6875, -4255222.875, -4500000.375, -4500000.375, -4202336.25, -3183624.75, -3728451.75, -4500000.375, -4500000.375, -4500000.375, 4500000.0, 4500000.0, -4500000.375, -4500000.375, -4500000.375, 0.11300000362098217, 0.9208750426769257, 0.23850001022219658, 192.0, 0.0, 0.0, 0.0, 0.0, 0.0, 0.0, 0.0, 0.0, 0.0, 1.6298570579163663E9, 2021-08-24 20:04:17.916
96.0, -3007789.6875, -2962616.0625, -4255323.375, -4500000.375, -4500000.375, -4202509.5, -3181582.5, -3726832.5, -4500000.375, -4500000.375, -4500000.375, 4500000.0, 4500000.0, -4500000.375, -4500000.375, -4500000.375, 0.11300000362098217, 0.9208750426769257, 0.23850001022219658, 192.0, 0.0, 0.0, 0.0, 0.0, 0.0, 0.0, 0.0, 0.0, 0.0, 1.629857057916373E9, 2021-08-24 20:04:17.916
98.0, -3001492.5, -2945209.5, -4255797.0, -4500000.375, -4500000.375, -4202995.5, -3179665.875, -3728304.75, -4500000.375, -4500000.375, -4500000.375, 4500000.0, 4500000.0, -4500000.375, -4500000.375, -4500000.375, 0.11300000362098217, 0.9208750426769257, 0.23850001022219658, 192.0, 0.0, 0.0, 0.0, 0.0, 0.0, 0.0, 0.0, 0.0, 0.0, 1.6298570579163797E9, 2021-08-24 20:04:17.916
100.0, -3010486.5, -2966998.6875, -4255003.125, -4500000.375, -4500000.375, -4202252.625, -3185949.75, -3727312.125, -4500000.375, -4500000.375, -4500000.375, 4500000.0, 4500000.0, -4500000.375, -4500000.375, -4500000.375, 0.11800000816583633, 0.9720000624656677, 0.2639999985694885, 192.0, 1.5, 88.0, 15.0, 48.0, 4.0, 32.0, 0.0, 0.0, 0.0, 1.6298570579163861E9, 2021-08-24 20:04:17.916
102.0, -2999563.5, -2941731.75, -4256351.625, -4500000.375, -4500000.375, -4203548.625, -3175813.5, -3728068.125, -4500000.375, -4500000.375, -4500000.375, 4500000.0, 4500000.0, -4500000.375, -4500000.375, -4500000.375, 0.11800000816583633, 0.9720000624656677, 0.2639999985694885, 192.0, 0.0, 0.0, 0.0, 0.0, 0.0, 0.0, 0.0, 0.0, 0.0, 1.6298570579163928E9, 2021-08-24 20:04:17.916
104.0, -3012911.0625, -2970609.0, -4255096.5, -4500000.375, -4500000.375, -4202438.25, -3190399.5, -3728023.125, -4500000.375, -4500000.375, -4500000.375, 4500000.0, 4500000.0, -4500000.375, -4500000.375, -4500000.375, 0.11800000816583633, 0.9720000624656677, 0.2639999985694885, 192.0, 0.0, 0.0, 0.0, 0.0, 0.0, 0.0, 0.0, 0.0, 0.0, 1.6298570579163995E9, 2021-08-24 20:04:17.916
106.0, -2998292.0625, -2938958.8125, -4256956.875, -4500000.375, -4500000.375, -4204222.875, -3172455.375, -3728160.75, -4500000.375, -4500000.375, -4500000.375, 4500000.0, 4500000.0, -4500000.375, -4500000.375, -4500000.375, 0.11800000816583633, 0.9720000624656677, 0.2639999985694885, 192.0, 0.0, 0.0, 0.0, 0.0, 0.0, 0.0, 0.0, 0.0, 0.0, 1.629857057916406E9, 2021-08-24 20:04:17.916
108.0, -3015126.75, -2972975.25, -4254708.0, -4500000.375, -4500000.375, -4201982.25, -3193586.25, -3728372.25, -4500000.375, -4500000.375, -4500000.375, 4500000.0, 4500000.0, -4500000.375, -4500000.375, -4500000.375, 0.11800000816583633, 0.9720000624656677, 0.2639999985694885, 192.0, 0.0, 0.0, 0.0, 0.0, 0.0, 0.0, 0.0, 0.0, 0.0, 1.6298570579164126E9, 2021-08-24 20:04:17.916
110.0, -2997473.4375, -2937238.5, -4257317.25, -4500000.375, -4500000.375, -4204593.75, -3169379.625, -3728194.125, -4500000.375, -4500000.375, -4500000.375, 4500000.0, 4500000.0, -4500000.375, -4500000.375, -4500000.375, 0.11000000685453415, 0.9520000219345093, 0.2540000081062317, 192.0, 1.5, 56.0, 14.5, 96.0, 3.5, 120.0, 0.0, 0.0, 0.0, 1.6298570579164193E9, 2021-08-24 20:04:17.916
112.0, -3016107.75, -2974138.6875, -4254400.5, -4500000.375, -4500000.375, -4201698.375, -3196240.125, -3728560.875, -4500000.375, -4500000.375, -4500000.375, 4500000.0, 4500000.0, -4500000.375, -4500000.375, -4500000.375, 0.11000000685453415, 0.9520000219345093, 0.2540000081062317, 192.0, 0.0, 0.0, 0.0, 0.0, 0.0, 0.0, 0.0, 0.0, 0.0, 1.6298570579164257E9, 2021-08-24 20:04:17.916
114.0, -2996100.75, -2936428.5, -4257118.125, -4500000.375, -4500000.375, -4204431.75, -3166868.25, -3727231.875, -4500000.375, -4500000.375, -4500000.375, 4500000.0, 4500000.0, -4500000.375, -4500000.375, -4500000.375, 0.11000000685453415, 0.9520000219345093, 0.2540000081062317, 192.0, 0.0, 0.0, 0.0, 0.0, 0.0, 0.0, 0.0, 0.0, 0.0, 1.6298570579164324E9, 2021-08-24 20:04:17.916
116.0, -3016385.0625, -2973987.5625, -4254294.0, -4500000.375, -4500000.375, -4201761.75, -3197841.0, -3729015.0, -4500000.375, -4500000.375, -4500000.375, 4500000.0, 4500000.0, -4500000.375, -4500000.375, -4500000.375, 0.11000000685453415, 0.9520000219345093, 0.2540000081062317, 192.0, 0.0, 0.0, 0.0, 0.0, 0.0, 0.0, 0.0, 0.0, 0.0, 1.6298570579164388E9, 2021-08-24 20:04:17.916
118.0, -2996060.4375, -2937048.5625, -4257125.625, -4500000.375, -4500000.375, -4204636.5, -3165705.75, -3727178.625, -4500000.375, -4500000.375, -4500000.375, 4500000.0, 4500000.0, -4500000.375, -4500000.375, -4500000.375, 0.11000000685453415, 0.9520000219345093, 0.2540000081062317, 192.0, 0.0, 0.0, 0.0, 0.0, 0.0, 0.0, 0.0, 0.0, 0.0, 1.6298570579164455E9, 2021-08-24 20:04:17.916
120.0, -3016029.9375, -2972694.5625, -4254367.5, -4500000.375, -4500000.375, -4201912.125, -3198626.625, -3729310.5, -4500000.375, -4500000.375, -4500000.375, 4500000.0, 4500000.0, -4500000.375, -4500000.375, -4500000.375, 0.10400000214576721, 0.9580000638961792, 0.2580000162124634, 192.0, 1.5, 32.0, 14.5, 120.0, 4.0, 8.0, 0.0, 0.0, 0.0, 1.629857057916452E9, 2021-08-24 20:04:17.916
122.0, -2996878.5, -2939031.9375, -4257490.125, -4500000.375, -4500000.375, -4204969.875, -3166038.0, -3727489.875, -4500000.375, -4500000.375, -4500000.375, 4500000.0, 4500000.0, -4500000.375, -4500000.375, -4500000.375, 0.10400000214576721, 0.9580000638961792, 0.2580000162124634, 192.0, 0.0, 0.0, 0.0, 0.0, 0.0, 0.0, 0.0, 0.0, 0.0, 1.6298570579164588E9, 2021-08-24 20:04:17.916
124.0, -3015273.1875, -2970424.875, -4254438.375, -4500000.375, -4500000.375, -4201844.25, -3198465.75, -3729539.625, -4500000.375, -4500000.375, -4500000.375, 4500000.0, 4500000.0, -4500000.375, -4500000.375, -4500000.375, 0.10400000214576721, 0.9580000638961792, 0.2580000162124634, 192.0, 0.0, 0.0, 0.0, 0.0, 0.0, 0.0, 0.0, 0.0, 0.0, 1.6298570579164653E9, 2021-08-24 20:04:17.916
126.0, -2998282.875, -2941887.9375, -4257425.625, -4500000.375, -4500000.375, -4204728.75, -3167185.875, -3727247.25, -4500000.375, -4500000.375, -4500000.375, 4500000.0, 4500000.0, -4500000.375, -4500000.375, -4500000.375, 0.10400000214576721, 0.9580000638961792, 0.2580000162124634, 192.0, 0.0, 0.0, 0.0, 0.0, 0.0, 0.0, 0.0, 0.0, 0.0, 1.629857057916472E9, 2021-08-24 20:04:17.916
128.0, -3013959.9375, -2967068.4375, -4254336.375, -4500000.375, -4500000.375, -4201693.5, -3196875.75, -3729465.375, -4500000.375, -4500000.375, -4500000.375, 4500000.0, 4500000.0, -4500000.375, -4500000.375, -4500000.375, 0.10400000214576721, 0.9580000638961792, 0.2580000162124634, 192.0, 0.0, 0.0, 0.0, 0.0, 0.0, 0.0, 0.0, 0.0, 0.0, 1.6298570579164803E9, 2021-08-24 20:04:17.916
130.0, -3000131.4375, -2945690.625, -4257247.5, -4500000.375, -4500000.375, -4204597.875, -3169078.875, -3727202.625, -4500000.375, -4500000.375, -4500000.375, 4500000.0, 4500000.0, -4500000.375, -4500000.375, -4500000.375, 0.1120000034570694, 0.9660000205039978, 0.2540000081062317, 192.0, 1.5, 64.0, 15.0, 24.0, 3.5, 120.0, 0.0, 0.0, 0.0, 1.6298570579164867E9, 2021-08-24 20:04:17.916
132.0, -3012240.5625, -2963008.6875, -4254756.75, -4500000.375, -4500000.375, -4202152.125, -3194754.375, -3729232.125, -4500000.375, -4500000.375, -4500000.375, 4500000.0, 4500000.0, -4500000.375, -4500000.375, -4500000.375, 0.1120000034570694, 0.9660000205039978, 0.2540000081062317, 192.0, 0.0, 0.0, 0.0, 0.0, 0.0, 0.0, 0.0, 0.0, 0.0, 1.6298570579164937E9, 2021-08-24 20:04:17.916
134.0, -3002650.125, -2950059.0, -4256930.625, -4500000.375, -4500000.375, -4204309.875, -3171858.375, -3727372.875, -4500000.375, -4500000.375, -4500000.375, 4500000.0, 4500000.0, -4500000.375, -4500000.375, -4500000.375, 0.1120000034570694, 0.9660000205039978, 0.2540000081062317, 192.0, 0.0, 0.0, 0.0, 0.0, 0.0, 0.0, 0.0, 0.0, 0.0, 1.6298570579165E9, 2021-08-24 20:04:17.916
136.0, -3010083.0, -2958554.0625, -4255205.25, -4500000.375, -4500000.375, -4202565.375, -3191845.5, -3729445.125, -4500000.375, -4500000.375, -4500000.375, 4500000.0, 4500000.0, -4500000.375, -4500000.375, -4500000.375, 0.1120000034570694, 0.9660000205039978, 0.2540000081062317, 192.0, 0.0, 0.0, 0.0, 0.0, 0.0, 0.0, 0.0, 0.0, 0.0, 1.6298570579165068E9, 2021-08-24 20:04:17.916
138.0, -3005121.0, -2954943.1875, -4256806.5, -4500000.375, -4500000.375, -4204126.875, -3175613.25, -3727646.25, -4500000.375, -4500000.375, -4500000.375, 4500000.0, 4500000.0, -4500000.375, -4500000.375, -4500000.375, 0.1120000034570694, 0.9660000205039978, 0.2540000081062317, 192.0, 0.0, 0.0, 0.0, 0.0, 0.0, 0.0, 0.0, 0.0, 0.0, 1.6298570579165132E9, 2021-08-24 20:04:17.916
140.0, -3007372.875, -2953965.375, -4255287.375, -4500000.375, -4500000.375, -4202601.75, -3187804.125, -3729243.375, -4500000.375, -4500000.375, -4500000.375, 4500000.0, 4500000.0, -4500000.375, -4500000.375, -4500000.375, 0.11600000411272049, 0.984000027179718, 0.26200002431869507, 192.0, 1.5, 80.0, 15.0, 96.0, 4.0, 24.0, 0.0, 0.0, 0.0, 1.62985705791652E9, 2021-08-24 20:04:17.916
142.0, -3007129.875, -2959816.875, -4256301.75, -4500000.375, -4500000.375, -4203560.625, -3179347.5, -3727628.625, -4500000.375, -4500000.375, -4500000.375, 4500000.0, 4500000.0, -4500000.375, -4500000.375, -4500000.375, 0.11600000411272049, 0.984000027179718, 0.26200002431869507, 192.0, 0.0, 0.0, 0.0, 0.0, 0.0, 0.0, 0.0, 0.0, 0.0, 1.6298570579165263E9, 2021-08-24 20:04:17.916
144.0, -3005099.4375, -2949494.625, -4255931.625, -4500000.375, -4500000.375, -4202994.375, -3184032.75, -3729286.5, -4500000.375, -4500000.375, -4500000.375, 4500000.0, 4500000.0, -4500000.375, -4500000.375, -4500000.375, 0.11600000411272049, 0.984000027179718, 0.26200002431869507, 192.0, 0.0, 0.0, 0.0, 0.0, 0.0, 0.0, 0.0, 0.0, 0.0, 1.6298570579165332E9, 2021-08-24 20:04:17.916
146.0, -3009959.625, -2964256.5, -4255733.25, -4500000.375, -4500000.375, -4202722.125, -3183348.375, -3727474.125, -4500000.375, -4500000.375, -4500000.375, 4500000.0, 4500000.0, -4500000.375, -4500000.375, -4500000.375, 0.11600000411272049, 0.984000027179718, 0.26200002431869507, 192.0, 0.0, 0.0, 0.0, 0.0, 0.0, 0.0, 0.0, 0.0, 0.0, 1.6298570579165397E9, 2021-08-24 20:04:17.916
148.0, -3002535.375, -2945122.125, -4256144.25, -4500000.375, -4500000.375, -4203102.75, -3179504.625, -3728261.625, -4500000.375, -4500000.375, -4500000.375, 4500000.0, 4500000.0, -4500000.375, -4500000.375, -4500000.375, 0.11300000548362732, 0.9830000400543213, 0.26200002431869507, 192.0, 1.5, 56.0, 15.0, 88.0, 4.0, 24.0, 0.0, 0.0, 0.0, 1.6298570579165473E9, 2021-08-24 20:04:17.916
150.0, -3012154.3125, -2968278.5625, -4255534.875, -4500000.375, -4500000.375, -4202507.25, -3187546.125, -3727468.875, -4500000.375, -4500000.375, -4500000.375, 4500000.0, 4500000.0, -4500000.375, -4500000.375, -4500000.375, 0.11300000548362732, 0.9830000400543213, 0.26200002431869507, 192.0, 0.0, 0.0, 0.0, 0.0, 0.0, 0.0, 0.0, 0.0, 0.0, 1.6298570579165535E9, 2021-08-24 20:04:17.916
152.0, -3000265.125, -2941596.5625, -4256797.125, -4500000.375, -4500000.375, -4203753.0, -3175656.75, -3728171.25, -4500000.375, -4500000.375, -4500000.375, 4500000.0, 4500000.0, -4500000.375, -4500000.375, -4500000.375, 0.11300000548362732, 0.9830000400543213, 0.26200002431869507, 192.0, 0.0, 0.0, 0.0, 0.0, 0.0, 0.0, 0.0, 0.0, 0.0, 1.6298570579165604E9, 2021-08-24 20:04:17.916
154.0, -3014236.6875, -2971632.9375, -4255338.0, -4500000.375, -4500000.375, -4202375.625, -3191568.375, -3728169.0, -4500000.375, -4500000.375, -4500000.375, 4500000.0, 4500000.0, -4500000.375, -4500000.375, -4500000.375, 0.11300000548362732, 0.9830000400543213, 0.26200002431869507, 192.0, 0.0, 0.0, 0.0, 0.0, 0.0, 0.0, 0.0, 0.0, 0.0, 1.6298570579165668E9, 2021-08-24 20:04:17.916
156.0, -2998979.8125, -2939319.375, -4257197.625, -4500000.375, -4500000.375, -4204254.0, -3172409.625, -3728562.0, -4500000.375, -4500000.375, -4500000.375, 4500000.0, 4500000.0, -4500000.375, -4500000.375, -4500000.375, 0.11300000548362732, 0.9830000400543213, 0.26200002431869507, 192.0, 0.0, 0.0, 0.0, 0.0, 0.0, 0.0, 0.0, 0.0, 0.0, 1.6298570579165735E9, 2021-08-24 20:04:17.916
158.0, -3016112.0625, -2973844.3125, -4255149.375, -4500000.375, -4500000.375, -4202157.75, -3194895.75, -3728764.875, -4500000.375, -4500000.375, -4500000.375, 4500000.0, 4500000.0, -4500000.375, -4500000.375, -4500000.375, 0.11350000649690628, 0.9795000553131104, 0.2670000195503235, 192.0, 1.5, 72.0, 15.0, 64.0, 4.0, 64.0, 0.0, 0.0, 0.0, 1.62985705791658E9, 2021-08-24 20:04:17.916
160.0, -2997940.6875, -2937838.875, -4257465.375, -4500000.375, -4500000.375, -4204378.125, -3169464.75, -3728119.125, -4500000.375, -4500000.375, -4500000.375, 4500000.0, 4500000.0, -4500000.375, -4500000.375, -4500000.375, 0.11350000649690628, 0.9795000553131104, 0.2670000195503235, 192.0, 0.0, 0.0, 0.0, 0.0, 0.0, 0.0, 0.0, 0.0, 0.0, 1.6298570579165866E9, 2021-08-24 20:04:17.916
162.0, -3017076.0, -2974890.75, -4254731.625, -4500000.375, -4500000.375, -4201660.5, -3197267.625, -3728918.25, -4500000.375, -4500000.375, -4500000.375, 4500000.0, 4500000.0, -4500000.375, -4500000.375, -4500000.375, 0.11350000649690628, 0.9795000553131104, 0.2670000195503235, 192.0, 0.0, 0.0, 0.0, 0.0, 0.0, 0.0, 0.0, 0.0, 0.0, 1.6298570579165974E9, 2021-08-24 20:04:17.916
164.0, -2997369.9375, -2937495.5625, -4257635.25, -4500000.375, -4500000.375, -4204542.0, -3167308.125, -3727607.25, -4500000.375, -4500000.375, -4500000.375, 4500000.0, 4500000.0, -4500000.375, -4500000.375, -4500000.375, 0.11350000649690628, 0.9795000553131104, 0.2670000195503235, 192.0, 0.0, 0.0, 0.0, 0.0, 0.0, 0.0, 0.0, 0.0, 0.0, 1.629857057916604E9, 2021-08-24 20:04:17.916
166.0, -3017863.5, -2974749.1875, -4254956.25, -4500000.375, -4500000.375, -4201994.625, -3198887.625, -3729618.0, -4500000.375, -4500000.375, -4500000.375, 4500000.0, 4500000.0, -4500000.375, -4500000.375, -4500000.375, 0.11350000649690628, 0.9795000553131104, 0.2670000195503235, 192.0, 0.0, 0.0, 0.0, 0.0, 0.0, 0.0, 0.0, 0.0, 0.0, 1.6298570579166107E9, 2021-08-24 20:04:17.916
168.0, -2997860.8125, -2938657.5, -4257747.0, -4500000.375, -4500000.375, -4204744.5, -3166786.875, -3727404.0, -4500000.375, -4500000.375, -4500000.375, 4500000.0, 4500000.0, -4500000.375, -4500000.375, -4500000.375, 0.11575000733137131, 0.9707500636577606, 0.26750001311302185, 192.0, 1.5, 88.0, 15.0, 8.0, 4.0, 48.0, 0.0, 0.0, 0.0, 1.6298570579166188E9, 2021-08-24 20:04:17.916
170.0, -3017399.0625, -2973185.4375, -4254478.875, -4500000.375, -4500000.375, -4201474.125, -3199375.125, -3729261.0, -4500000.375, -4500000.375, -4500000.375, 4500000.0, 4500000.0, -4500000.375, -4500000.375, -4500000.375, 0.11575000733137131, 0.9707500636577606, 0.26750001311302185, 192.0, 0.0, 0.0, 0.0, 0.0, 0.0, 0.0, 0.0, 0.0, 0.0, 1.6298570579166255E9, 2021-08-24 20:04:17.916
172.0, -2998709.4375, -2940576.75, -4257780.375, -4500000.375, -4500000.375, -4204778.25, -3166940.25, -3727475.25, -4500000.375, -4500000.375, -4500000.375, 4500000.0, 4500000.0, -4500000.375, -4500000.375, -4500000.375, 0.11575000733137131, 0.9707500636577606, 0.26750001311302185, 192.0, 0.0, 0.0, 0.0, 0.0, 0.0, 0.0, 0.0, 0.0, 0.0, 1.629857057916632E9, 2021-08-24 20:04:17.916
174.0, -3016526.8125, -2970560.625, -4254678.375, -4500000.375, -4500000.375, -4201628.625, -3198906.75, -3729355.125, -4500000.375, -4500000.375, -4500000.375, 4500000.0, 4500000.0, -4500000.375, -4500000.375, -4500000.375, 0.11575000733137131, 0.9707500636577606, 0.26750001311302185, 192.0, 0.0, 0.0, 0.0, 0.0, 0.0, 0.0, 0.0, 0.0, 0.0, 1.6298570579166386E9, 2021-08-24 20:04:17.916
176.0, -3000202.875, -2943580.875, -4257649.5, -4500000.375, -4500000.375, -4204540.125, -3168228.375, -3727345.5, -4500000.375, -4500000.375, -4500000.375, 4500000.0, 4500000.0, -4500000.375, -4500000.375, -4500000.375, 0.11575000733137131, 0.9707500636577606, 0.26750001311302185, 192.0, 0.0, 0.0, 0.0, 0.0, 0.0, 0.0, 0.0, 0.0, 0.0, 1.6298570579166453E9, 2021-08-24 20:04:17.916
178.0, -3015079.5, -2967105.9375, -4254699.375, -4500000.375, -4500000.375, -4201587.0, -3197278.875, -3729234.75, -4500000.375, -4500000.375, -4500000.375, 4500000.0, 4500000.0, -4500000.375, -4500000.375, -4500000.375, 0.12287500873208046, 0.9643750637769699, 0.26775000989437103, 192.0, 2.0, 8.0, 14.5, 120.0, 4.0, 48.0, 0.0, 0.0, 0.0, 1.6298570579166515E9, 2021-08-24 20:04:17.916
180.0, -3001844.8125, -2947497.375, -4257408.375, -4500000.375, -4500000.375, -4204405.875, -3170236.125, -3727031.25, -4500000.375, -4500000.375, -4500000.375, 4500000.0, 4500000.0, -4500000.375, -4500000.375, -4500000.375, 0.12287500873208046, 0.9643750637769699, 0.26775000989437103, 192.0, 0.0, 0.0, 0.0, 0.0, 0.0, 0.0, 0.0, 0.0, 0.0, 1.6298570579166584E9, 2021-08-24 20:04:17.916
0.0, -1568690.0625, -1530524.34375, -2161310.25, -2250000.1875, -2250000.1875, -2135678.4375, -1629642.75, -1900840.3125, -2250000.1875, -2250000.1875, -2250000.1875, 2249999.625, 2249999.625, -2250000.1875, -2250000.1875, -2250000.1875, 0.10400000214576721, 0.9600000381469727, 0.20600001513957977, 192.0, 1.5, 32.0, 15.0, 0.0, 3.0, 56.0, 0.0, 0.0, 0.0, 1.6298570580198953E9, 2021-08-24 20:04:18.019
2.0, -3133184.0625, -3047938.125, -4322811.0, -4500000.375, -4500000.375, -4271460.0, -3257759.25, -3802452.75, -4500000.375, -4500000.375, -4500000.375, 4500000.0, 4500000.0, -4500000.375, -4500000.375, -4500000.375, 0.10400000214576721, 0.9600000381469727, 0.20600001513957977, 192.0, 0.0, 0.0, 0.0, 0.0, 0.0, 0.0, 0.0, 0.0, 0.0, 1.6298570585029492E9, 2021-08-24 20:04:18.502
4.0, -3143773.5, -3070478.8125, -4321678.5, -4500000.375, -4500000.375, -4270307.625, -3269874.375, -3802657.5, -4500000.375, -4500000.375, -4500000.375, 4500000.0, 4500000.0, -4500000.375, -4500000.375, -4500000.375, 0.10400000214576721, 0.9600000381469727, 0.20600001513957977, 192.0, 0.0, 0.0, 0.0, 0.0, 0.0, 0.0, 0.0, 0.0, 0.0, 1.6298570585029976E9, 2021-08-24 20:04:18.502
6.0, -3132666.9375, -3046670.4375, -4323189.0, -4500000.375, -4500000.375, -4271785.5, -3255835.125, -3802667.25, -4500000.375, -4500000.375, -4500000.375, 4500000.0, 4500000.0, -4500000.375, -4500000.375, -4500000.375, 0.09700000286102295, 0.9700000286102295, 0.19600000977516174, 192.0, 1.0, 104.0, 15.0, 80.0, 2.5, 104.0, 0.0, 0.0, 0.0, 1.629857058503005E9, 2021-08-24 20:04:18.503
8.0, -3144357.5625, -3071214.375, -4320805.875, -4500000.375, -4500000.375, -4269429.75, -3270983.25, -3802315.5, -4500000.375, -4500000.375, -4500000.375, 4500000.0, 4500000.0, -4500000.375, -4500000.375, -4500000.375, 0.09700000286102295, 0.9700000286102295, 0.19600000977516174, 192.0, 0.0, 0.0, 0.0, 0.0, 0.0, 0.0, 0.0, 0.0, 0.0, 1.6298570585030122E9, 2021-08-24 20:04:18.503
10.0, -3131720.625, -3045776.25, -4322832.375, -4500000.375, -4500000.375, -4271422.125, -3253916.625, -3801985.875, -4500000.375, -4500000.375, -4500000.375, 4500000.0, 4500000.0, -4500000.375, -4500000.375, -4500000.375, 0.09700000286102295, 0.9700000286102295, 0.19600000977516174, 192.0, 0.0, 0.0, 0.0, 0.0, 0.0, 0.0, 0.0, 0.0, 0.0, 1.629857058503019E9, 2021-08-24 20:04:18.503
12.0, -3145184.25, -3071605.3125, -4321111.125, -4500000.375, -4500000.375, -4269694.125, -3272404.125, -3802819.125, -4500000.375, -4500000.375, -4500000.375, 4500000.0, 4500000.0, -4500000.375, -4500000.375, -4500000.375, 0.09700000286102295, 0.9700000286102295, 0.19600000977516174, 192.0, 0.0, 0.0, 0.0, 0.0, 0.0, 0.0, 0.0, 0.0, 0.0, 1.6298570585030272E9, 2021-08-24 20:04:18.503
14.0, -3132039.9375, -3046149.5625, -4323230.625, -4500000.375, -4500000.375, -4271866.5, -3253467.75, -3802198.875, -4500000.375, -4500000.375, -4500000.375, 4500000.0, 4500000.0, -4500000.375, -4500000.375, -4500000.375, 0.09700000286102295, 0.9700000286102295, 0.19600000977516174, 192.0, 0.0, 0.0, 0.0, 0.0, 0.0, 0.0, 0.0, 0.0, 0.0, 1.6298570585030348E9, 2021-08-24 20:04:18.503
16.0, -3145182.75, -3070798.125, -4320937.875, -4500000.375, -4500000.375, -4269705.75, -3273267.75, -3803062.5, -4500000.375, -4500000.375, -4500000.375, 4500000.0, 4500000.0, -4500000.375, -4500000.375, -4500000.375, 0.09050000458955765, 0.9790000319480896, 0.1860000118613243, 192.0, 1.0, 80.0, 15.0, 112.0, 2.5, 64.0, 0.0, 0.0, 0.0, 1.6298570585030673E9, 2021-08-24 20:04:18.503
18.0, -3132027.5625, -3047178.0, -4323134.25, -4500000.375, -4500000.375, -4272037.875, -3253457.625, -3802154.625, -4500000.375, -4500000.375, -4500000.375, 4500000.0, 4500000.0, -4500000.375, -4500000.375, -4500000.375, 0.09050000458955765, 0.9790000319480896, 0.1860000118613243, 192.0, 0.0, 0.0, 0.0, 0.0, 0.0, 0.0, 0.0, 0.0, 0.0, 1.6298570585030742E9, 2021-08-24 20:04:18.503
20.0, -3144482.0625, -3069443.0625, -4320978.375, -4500000.375, -4500000.375, -4270013.625, -3273415.5, -3803210.625, -4500000.375, -4500000.375, -4500000.375, 4500000.0, 4500000.0, -4500000.375, -4500000.375, -4500000.375, 0.09050000458955765, 0.9790000319480896, 0.1860000118613243, 192.0, 0.0, 0.0, 0.0, 0.0, 0.0, 0.0, 0.0, 0.0, 0.0, 1.6298570585030808E9, 2021-08-24 20:04:18.503
22.0, -3132564.5625, -3049126.3125, -4323120.375, -4500000.375, -4500000.375, -4272079.125, -3254236.5, -3802075.125, -4500000.375, -4500000.375, -4500000.375, 4500000.0, 4500000.0, -4500000.375, -4500000.375, -4500000.375, 0.09050000458955765, 0.9790000319480896, 0.1860000118613243, 192.0, 0.0, 0.0, 0.0, 0.0, 0.0, 0.0, 0.0, 0.0, 0.0, 1.6298570585030873E9, 2021-08-24 20:04:18.503
24.0, -3143703.75, -3067267.125, -4321009.5, -4500000.375, -4500000.375, -4269970.875, -3272926.125, -3803432.25, -4500000.375, -4500000.375, -4500000.375, 4500000.0, 4500000.0, -4500000.375, -4500000.375, -4500000.375, 0.09050000458955765, 0.9790000319480896, 0.1860000118613243, 192.0, 0.0, 0.0, 0.0, 0.0, 0.0, 0.0, 0.0, 0.0, 0.0, 1.6298570585030944E9, 2021-08-24 20:04:18.503
26.0, -3133693.125, -3051504.375, -4322912.25, -4500000.375, -4500000.375, -4272008.25, -3255444.375, -3802195.125, -4500000.375, -4500000.375, -4500000.375, 4500000.0, 4500000.0, -4500000.375, -4500000.375, -4500000.375, 0.0832500047981739, 0.9835000336170197, 0.17800000682473183, 192.0, 1.0, 48.0, 15.0, 112.0, 2.5, 40.0, 0.0, 0.0, 0.0, 1.6298570585031023E9, 2021-08-24 20:04:18.503
28.0, -3142665.1875, -3064583.4375, -4321232.25, -4500000.375, -4500000.375, -4270387.125, -3272003.625, -3803475.75, -4500000.375, -4500000.375, -4500000.375, 4500000.0, 4500000.0, -4500000.375, -4500000.375, -4500000.375, 0.0832500047981739, 0.9835000336170197, 0.17800000682473183, 192.0, 0.0, 0.0, 0.0, 0.0, 0.0, 0.0, 0.0, 0.0, 0.0, 1.6298570585031087E9, 2021-08-24 20:04:18.503
30.0, -3135226.875, -3054679.125, -4322868.375, -4500000.375, -4500000.375, -4272162.75, -3257698.875, -3802243.5, -4500000.375, -4500000.375, -4500000.375, 4500000.0, 4500000.0, -4500000.375, -4500000.375, -4500000.375, 0.0832500047981739, 0.9835000336170197, 0.17800000682473183, 192.0, 0.0, 0.0, 0.0, 0.0, 0.0, 0.0, 0.0, 0.0, 0.0, 1.6298570585031157E9, 2021-08-24 20:04:18.503
32.0, -3141078.9375, -3061801.3125, -4321394.25, -4500000.375, -4500000.375, -4270632.375, -3270119.625, -3803357.625, -4500000.375, -4500000.375, -4500000.375, 4500000.0, 4500000.0, -4500000.375, -4500000.375, -4500000.375, 0.0832500047981739, 0.9835000336170197, 0.17800000682473183, 192.0, 0.0, 0.0, 0.0, 0.0, 0.0, 0.0, 0.0, 0.0, 0.0, 1.629857058503122E9, 2021-08-24 20:04:18.503
34.0, -3136830.75, -3058333.3125, -4322841.375, -4500000.375, -4500000.375, -4272041.625, -3259800.0, -3802441.5, -4500000.375, -4500000.375, -4500000.375, 4500000.0, 4500000.0, -4500000.375, -4500000.375, -4500000.375, 0.0832500047981739, 0.9835000336170197, 0.17800000682473183, 192.0, 0.0, 0.0, 0.0, 0.0, 0.0, 0.0, 0.0, 0.0, 0.0, 1.6298570585031283E9, 2021-08-24 20:04:18.503
36.0, -3139546.3125, -3059153.4375, -4321833.0, -4500000.375, -4500000.375, -4271082.75, -3268534.125, -3803544.75, -4500000.375, -4500000.375, -4500000.375, 4500000.0, 4500000.0, -4500000.375, -4500000.375, -4500000.375, 0.07762500457465649, 0.9917500168085098, 0.17600000835955143, 192.0, 1.0, 32.0, 15.5, 32.0, 2.5, 56.0, 0.0, 0.0, 0.0, 1.6298570585031347E9, 2021-08-24 20:04:18.503
38.0, -3138443.4375, -3062056.6875, -4322466.0, -4500000.375, -4500000.375, -4271782.5, -3262261.125, -3802414.125, -4500000.375, -4500000.375, -4500000.375, 4500000.0, 4500000.0, -4500000.375, -4500000.375, -4500000.375, 0.07762500457465649, 0.9917500168085098, 0.17600000835955143, 192.0, 0.0, 0.0, 0.0, 0.0, 0.0, 0.0, 0.0, 0.0, 0.0, 1.6298570585031412E9, 2021-08-24 20:04:18.503
40.0, -3137802.375, -3056065.125, -4322165.625, -4500000.375, -4500000.375, -4271590.5, -3266150.25, -3803420.625, -4500000.375, -4500000.375, -4500000.375, 4500000.0, 4500000.0, -4500000.375, -4500000.375, -4500000.375, 0.07762500457465649, 0.9917500168085098, 0.17600000835955143, 192.0, 0.0, 0.0, 0.0, 0.0, 0.0, 0.0, 0.0, 0.0, 0.0, 1.6298570585031471E9, 2021-08-24 20:04:18.503
42.0, -3140420.625, -3065591.8125, -4322401.125, -4500000.375, -4500000.375, -4271891.25, -3265107.375, -3802756.875, -4500000.375, -4500000.375, -4500000.375, 4500000.0, 4500000.0, -4500000.375, -4500000.375, -4500000.375, 0.07762500457465649, 0.9917500168085098, 0.17600000835955143, 192.0, 0.0, 0.0, 0.0, 0.0, 0.0, 0.0, 0.0, 0.0, 0.0, 1.6298570585031536E9, 2021-08-24 20:04:18.503
44.0, -3136474.125, -3053243.0625, -4322734.875, -4500000.375, -4500000.375, -4272307.125, -3263937.0, -3803630.625, -4500000.375, -4500000.375, -4500000.375, 4500000.0, 4500000.0, -4500000.375, -4500000.375, -4500000.375, 0.07762500457465649, 0.9917500168085098, 0.17600000835955143, 192.0, 0.0, 0.0, 0.0, 0.0, 0.0, 0.0, 0.0, 0.0, 0.0, 1.62985705850316E9, 2021-08-24 20:04:18.503
46.0, -3142090.125, -3068393.8125, -4322197.125, -4500000.375, -4500000.375, -4271771.625, -3267781.5, -3802754.25, -4500000.375, -4500000.375, -4500000.375, 4500000.0, 4500000.0, -4500000.375, -4500000.375, -4500000.375, 0.06881250347942114, 0.9928750172257423, 0.17700000572949648, 192.0, 0.5, 112.0, 15.5, 8.0, 2.5, 72.0, 0.0, 0.0, 0.0, 1.6298570585031664E9, 2021-08-24 20:04:18.503
48.0, -3134740.875, -3050589.75, -4322652.75, -4500000.375, -4500000.375, -4272191.25, -3261446.625, -3802982.25, -4500000.375, -4500000.375, -4500000.375, 4500000.0, 4500000.0, -4500000.375, -4500000.375, -4500000.375, 0.06881250347942114, 0.9928750172257423, 0.17700000572949648, 192.0, 0.0, 0.0, 0.0, 0.0, 0.0, 0.0, 0.0, 0.0, 0.0, 1.6298570585031726E9, 2021-08-24 20:04:18.503
50.0, -3143292.75, -3070739.0625, -4321714.5, -4500000.375, -4500000.375, -4271359.875, -3270211.875, -3802844.25, -4500000.375, -4500000.375, -4500000.375, 4500000.0, 4500000.0, -4500000.375, -4500000.375, -4500000.375, 0.06881250347942114, 0.9928750172257423, 0.17700000572949648, 192.0, 0.0, 0.0, 0.0, 0.0, 0.0, 0.0, 0.0, 0.0, 0.0, 1.6298570585031812E9, 2021-08-24 20:04:18.503
52.0, -3133453.3125, -3048554.4375, -4322944.5, -4500000.375, -4500000.375, -4272688.125, -3259492.125, -3803004.0, -4500000.375, -4500000.375, -4500000.375, 4500000.0, 4500000.0, -4500000.375, -4500000.375, -4500000.375, 0.06881250347942114, 0.9928750172257423, 0.17700000572949648, 192.0, 0.0, 0.0, 0.0, 0.0, 0.0, 0.0, 0.0, 0.0, 0.0, 1.6298570585031877E9, 2021-08-24 20:04:18.503
54.0, -3144442.875, -3072242.625, -4321573.5, -4500000.375, -4500000.375, -4271381.625, -3272448.75, -3803256.75, -4500000.375, -4500000.375, -4500000.375, 4500000.0, 4500000.0, -4500000.375, -4500000.375, -4500000.375, 0.06881250347942114, 0.9928750172257423, 0.17700000572949648, 192.0, 0.0, 0.0, 0.0, 0.0, 0.0, 0.0, 0.0, 0.0, 0.0, 1.629857058503194E9, 2021-08-24 20:04:18.503
56.0, -3132854.8125, -3047135.0625, -4323408.0, -4500000.375, -4500000.375, -4273200.375, -3257884.125, -3803176.5, -4500000.375, -4500000.375, -4500000.375, 4500000.0, 4500000.0, -4500000.375, -4500000.375, -4500000.375, 0.05000000074505806, 0.9920000433921814, 0.1900000125169754, 192.0, 0.5, 72.0, 15.5, 0.0, 2.5, 120.0, 0.0, 0.0, 0.0, 1.6298570585032008E9, 2021-08-24 20:04:18.503
58.0, -3145505.625, -3072912.1875, -4321529.25, -4500000.375, -4500000.375, -4271483.625, -3274339.5, -3803526.75, -4500000.375, -4500000.375, -4500000.375, 4500000.0, 4500000.0, -4500000.375, -4500000.375, -4500000.375, 0.05000000074505806, 0.9920000433921814, 0.1900000125169754, 192.0, 0.0, 0.0, 0.0, 0.0, 0.0, 0.0, 0.0, 0.0, 0.0, 1.6298570585032072E9, 2021-08-24 20:04:18.503
60.0, -3132506.0625, -3046571.8125, -4323473.625, -4500000.375, -4500000.375, -4273460.625, -3256886.625, -3803071.125, -4500000.375, -4500000.375, -4500000.375, 4500000.0, 4500000.0, -4500000.375, -4500000.375, -4500000.375, 0.05000000074505806, 0.9920000433921814, 0.1900000125169754, 192.0, 0.0, 0.0, 0.0, 0.0, 0.0, 0.0, 0.0, 0.0, 0.0, 1.6298570585032134E9, 2021-08-24 20:04:18.503
62.0, -3146002.5, -3072773.25, -4321408.125, -4500000.375, -4500000.375, -4271448.375, -3275423.25, -3803687.625, -4500000.375, -4500000.375, -4500000.375, 4500000.0, 4500000.0, -4500000.375, -4500000.375, -4500000.375, 0.05000000074505806, 0.9920000433921814, 0.1900000125169754, 192.0, 0.0, 0.0, 0.0, 0.0, 0.0, 0.0, 0.0, 0.0, 0.0, 1.6298570585032196E9, 2021-08-24 20:04:18.503
64.0, -3132751.125, -3046989.1875, -4323559.875, -4500000.375, -4500000.375, -4273601.625, -3256300.125, -3802907.625, -4500000.375, -4500000.375, -4500000.375, 4500000.0, 4500000.0, -4500000.375, -4500000.375, -4500000.375, 0.05000000074505806, 0.9920000433921814, 0.1900000125169754, 192.0, 0.0, 0.0, 0.0, 0.0, 0.0, 0.0, 0.0, 0.0, 0.0, 1.629857058503226E9, 2021-08-24 20:04:18.503
66.0, -3146090.25, -3071756.0625, -4321203.75, -4500000.375, -4500000.375, -4271421.0, -3276027.75, -3803693.625, -4500000.375, -4500000.375, -4500000.375, 4500000.0, 4500000.0, -4500000.375, -4500000.375, -4500000.375, 0.03200000151991844, 0.9820000529289246, 0.19600000977516174, 192.0, 0.5, 0.0, 15.0, 88.0, 3.0, 16.0, 0.0, 0.0, 0.0, 1.6298570585032325E9, 2021-08-24 20:04:18.503
68.0, -3133084.3125, -3048152.625, -4323532.875, -4500000.375, -4500000.375, -4273734.0, -3256393.5, -3802799.625, -4500000.375, -4500000.375, -4500000.375, 4500000.0, 4500000.0, -4500000.375, -4500000.375, -4500000.375, 0.03200000151991844, 0.9820000529289246, 0.19600000977516174, 192.0, 0.0, 0.0, 0.0, 0.0, 0.0, 0.0, 0.0, 0.0, 0.0, 1.629857058503239E9, 2021-08-24 20:04:18.503
70.0, -3145600.125, -3070161.375, -4321401.75, -4500000.375, -4500000.375, -4271661.75, -3275866.875, -3804009.375, -4500000.375, -4500000.375, -4500000.375, 4500000.0, 4500000.0, -4500000.375, -4500000.375, -4500000.375, 0.03200000151991844, 0.9820000529289246, 0.19600000977516174, 192.0, 0.0, 0.0, 0.0, 0.0, 0.0, 0.0, 0.0, 0.0, 0.0, 1.629857058503245E9, 2021-08-24 20:04:18.503
72.0, -3134071.875, -3050709.9375, -4323822.0, -4500000.375, -4500000.375, -4274101.5, -3257210.625, -3803077.125, -4500000.375, -4500000.375, -4500000.375, 4500000.0, 4500000.0, -4500000.375, -4500000.375, -4500000.375, 0.03200000151991844, 0.9820000529289246, 0.19600000977516174, 192.0, 0.0, 0.0, 0.0, 0.0, 0.0, 0.0, 0.0, 0.0, 0.0, 1.629857058503252E9, 2021-08-24 20:04:18.503
74.0, -3144855.0, -3068329.3125, -4321976.25, -4500000.375, -4500000.375, -4272272.25, -3275272.5, -3804476.625, -4500000.375, -4500000.375, -4500000.375, 4500000.0, 4500000.0, -4500000.375, -4500000.375, -4500000.375, 0.03200000151991844, 0.9820000529289246, 0.19600000977516174, 192.0, 0.0, 0.0, 0.0, 0.0, 0.0, 0.0, 0.0, 0.0, 0.0, 1.6298570585032587E9, 2021-08-24 20:04:18.503
76.0, -3135192.0, -3053674.3125, -4323768.0, -4500000.375, -4500000.375, -4273988.25, -3258325.875, -3803097.375, -4500000.375, -4500000.375, -4500000.375, 4500000.0, 4500000.0, -4500000.375, -4500000.375, -4500000.375, 0.02200000174343586, 0.9820000529289246, 0.19200000166893005, 192.0, 0.0, 88.0, 15.0, 88.0, 3.0, 0.0, 0.0, 0.0, 0.0, 1.6298570585032654E9, 2021-08-24 20:04:18.503
78.0, -3143268.1875, -3065510.4375, -4321723.5, -4500000.375, -4500000.375, -4271978.625, -3273514.5, -3804121.5, -4500000.375, -4500000.375, -4500000.375, 4500000.0, 4500000.0, -4500000.375, -4500000.375, -4500000.375, 0.02200000174343586, 0.9820000529289246, 0.19200000166893005, 192.0, 0.0, 0.0, 0.0, 0.0, 0.0, 0.0, 0.0, 0.0, 0.0, 1.6298570585032728E9, 2021-08-24 20:04:18.503
80.0, -3136371.1875, -3056935.3125, -4323396.375, -4500000.375, -4500000.375, -4273666.875, -3259828.5, -3802908.75, -4500000.375, -4500000.375, -4500000.375, 4500000.0, 4500000.0, -4500000.375, -4500000.375, -4500000.375, 0.02200000174343586, 0.9820000529289246, 0.19200000166893005, 192.0, 0.0, 0.0, 0.0, 0.0, 0.0, 0.0, 0.0, 0.0, 0.0, 1.6298570585032797E9, 2021-08-24 20:04:18.503
82.0, -3141447.0, -3062376.375, -4321964.625, -4500000.375, -4500000.375, -4272308.625, -3271348.875, -3803983.125, -4500000.375, -4500000.375, -4500000.375, 4500000.0, 4500000.0, -4500000.375, -4500000.375, -4500000.375, 0.02200000174343586, 0.9820000529289246, 0.19200000166893005, 192.0, 0.0, 0.0, 0.0, 0.0, 0.0, 0.0, 0.0, 0.0, 0.0, 1.6298570585032868E9, 2021-08-24 20:04:18.503
84.0, -3137617.875, -3060449.625, -4323079.125, -4500000.375, -4500000.375, -4273448.625, -3261817.875, -3802726.125, -4500000.375, -4500000.375, -4500000.375, 4500000.0, 4500000.0, -4500000.375, -4500000.375, -4500000.375, 0.02200000174343586, 0.9820000529289246, 0.19200000166893005, 192.0, 0.0, 0.0, 0.0, 0.0, 0.0, 0.0, 0.0, 0.0, 0.0, 1.6298570585032952E9, 2021-08-24 20:04:18.503
86.0, -3139688.4375, -3059397.0, -4322449.875, -4500000.375, -4500000.375, -4272782.25, -3269376.375, -3803919.375, -4500000.375, -4500000.375, -4500000.375, 4500000.0, 4500000.0, -4500000.375, -4500000.375, -4500000.375, 0.024000000208616257, 0.9820000529289246, 0.1900000125169754, 192.0, 0.0, 96.0, 15.0, 88.0, 2.5, 120.0, 0.0, 0.0, 0.0, 1.6298570585033014E9, 2021-08-24 20:04:18.503
88.0, -3139425.5625, -3064121.4375, -4322724.75, -4500000.375, -4500000.375, -4273180.5, -3264566.625, -3802479.0, -4500000.375, -4500000.375, -4500000.375, 4500000.0, 4500000.0, -4500000.375, -4500000.375, -4500000.375, 0.024000000208616257, 0.9820000529289246, 0.1900000125169754, 192.0, 0.0, 0.0, 0.0, 0.0, 0.0, 0.0, 0.0, 0.0, 0.0, 1.6298570585033076E9, 2021-08-24 20:04:18.503
90.0, -3138153.1875, -3055999.6875, -4322380.125, -4500000.375, -4500000.375, -4272795.375, -3266729.625, -3803261.625, -4500000.375, -4500000.375, -4500000.375, 4500000.0, 4500000.0, -4500000.375, -4500000.375, -4500000.375, 0.024000000208616257, 0.9820000529289246, 0.1900000125169754, 192.0, 0.0, 0.0, 0.0, 0.0, 0.0, 0.0, 0.0, 0.0, 0.0, 1.629857058503314E9, 2021-08-24 20:04:18.503
92.0, -3141993.5625, -3067318.6875, -4322732.25, -4500000.375, -4500000.375, -4273133.625, -3267166.5, -3803014.875, -4500000.375, -4500000.375, -4500000.375, 4500000.0, 4500000.0, -4500000.375, -4500000.375, -4500000.375, 0.024000000208616257, 0.9820000529289246, 0.1900000125169754, 192.0, 0.0, 0.0, 0.0, 0.0, 0.0, 0.0, 0.0, 0.0, 0.0, 1.6298570585033202E9, 2021-08-24 20:04:18.503
94.0, -3137071.125, -3053090.625, -4323061.875, -4500000.375, -4500000.375, -4273495.5, -3264533.625, -3803865.75, -4500000.375, -4500000.375, -4500000.375, 4500000.0, 4500000.0, -4500000.375, -4500000.375, -4500000.375, 0.02000000048428774, 0.9840000569820404, 0.18700001388788223, 192.0, 0.0, 64.0, 15.0, 104.0, 2.5, 96.0, 0.0, 0.0, 0.0, 1.6298570585033264E9, 2021-08-24 20:04:18.503
96.0, -3143717.625, -3070053.0, -4322160.375, -4500000.375, -4500000.375, -4272648.375, -3269653.875, -3803263.875, -4500000.375, -4500000.375, -4500000.375, 4500000.0, 4500000.0, -4500000.375, -4500000.375, -4500000.375, 0.02000000048428774, 0.9840000569820404, 0.18700001388788223, 192.0, 0.0, 0.0, 0.0, 0.0, 0.0, 0.0, 0.0, 0.0, 0.0, 1.6298570585033336E9, 2021-08-24 20:04:18.503
98.0, -3135610.875, -3050312.4375, -4322857.5, -4500000.375, -4500000.375, -4273346.625, -3261800.25, -3803625.375, -4500000.375, -4500000.375, -4500000.375, 4500000.0, 4500000.0, -4500000.375, -4500000.375, -4500000.375, 0.02000000048428774, 0.9840000569820404, 0.18700001388788223, 192.0, 0.0, 0.0, 0.0, 0.0, 0.0, 0.0, 0.0, 0.0, 0.0, 1.629857058503342E9, 2021-08-24 20:04:18.503
100.0, -3145260.9375, -3072005.625, -4321816.875, -4500000.375, -4500000.375, -4272377.25, -3271878.0, -3803645.625, -4500000.375, -4500000.375, -4500000.375, 4500000.0, 4500000.0, -4500000.375, -4500000.375, -4500000.375, 0.02000000048428774, 0.9840000569820404, 0.18700001388788223, 192.0, 0.0, 0.0, 0.0, 0.0, 0.0, 0.0, 0.0, 0.0, 0.0, 1.6298570585033488E9, 2021-08-24 20:04:18.503
102.0, -3134929.6875, -3048416.0625, -4323281.25, -4500000.375, -4500000.375, -4273846.5, -3259898.25, -3803669.25, -4500000.375, -4500000.375, -4500000.375, 4500000.0, 4500000.0, -4500000.375, -4500000.375, -4500000.375, 0.02000000048428774, 0.9840000569820404, 0.18700001388788223, 192.0, 0.0, 0.0, 0.0, 0.0, 0.0, 0.0, 0.0, 0.0, 0.0, 1.6298570585033555E9, 2021-08-24 20:04:18.503
104.0, -3146401.5, -3073341.375, -4321622.625, -4500000.375, -4500000.375, -4272136.875, -3273781.125, -3803761.5, -4500000.375, -4500000.375, -4500000.375, 4500000.0, 4500000.0, -4500000.375, -4500000.375, -4500000.375, 0.015000000596046448, 0.9880000501871109, 0.18950000777840614, 192.0, 0.0, 40.0, 15.5, 0.0, 3.0, 0.0, 0.0, 0.0, 0.0, 1.6298570585033622E9, 2021-08-24 20:04:18.503
106.0, -3134044.5, -3047553.0, -4323519.0, -4500000.375, -4500000.375, -4274052.0, -3258144.375, -3803580.375, -4500000.375, -4500000.375, -4500000.375, 4500000.0, 4500000.0, -4500000.375, -4500000.375, -4500000.375, 0.015000000596046448, 0.9880000501871109, 0.18950000777840614, 192.0, 0.0, 0.0, 0.0, 0.0, 0.0, 0.0, 0.0, 0.0, 0.0, 1.629857058503369E9, 2021-08-24 20:04:18.503
108.0, -3147338.625, -3074315.4375, -4321794.75, -4500000.375, -4500000.375, -4272359.625, -3275430.75, -3804244.875, -4500000.375, -4500000.375, -4500000.375, 4500000.0, 4500000.0, -4500000.375, -4500000.375, -4500000.375, 0.015000000596046448, 0.9880000501871109, 0.18950000777840614, 192.0, 0.0, 0.0, 0.0, 0.0, 0.0, 0.0, 0.0, 0.0, 0.0, 1.6298570585033753E9, 2021-08-24 20:04:18.503
110.0, -3134142.1875, -3047871.0, -4323898.5, -4500000.375, -4500000.375, -4274529.0, -3257347.5, -3803667.75, -4500000.375, -4500000.375, -4500000.375, 4500000.0, 4500000.0, -4500000.375, -4500000.375, -4500000.375, 0.015000000596046448, 0.9880000501871109, 0.18950000777840614, 192.0, 0.0, 0.0, 0.0, 0.0, 0.0, 0.0, 0.0, 0.0, 0.0, 1.6298570585033815E9, 2021-08-24 20:04:18.503
112.0, -3147647.25, -3074346.5625, -4321960.125, -4500000.375, -4500000.375, -4272649.5, -3276639.375, -3804447.375, -4500000.375, -4500000.375, -4500000.375, 4500000.0, 4500000.0, -4500000.375, -4500000.375, -4500000.375, 0.015000000596046448, 0.9880000501871109, 0.18950000777840614, 192.0, 0.0, 0.0, 0.0, 0.0, 0.0, 0.0, 0.0, 0.0, 0.0, 1.6298570585033877E9, 2021-08-24 20:04:18.503
114.0, -3134016.1875, -3048921.375, -4324207.125, -4500000.375, -4500000.375, -4274820.75, -3257232.0, -3803487.375, -4500000.375, -4500000.375, -4500000.375, 4500000.0, 4500000.0, -4500000.375, -4500000.375, -4500000.375, 0.015500000678002834, 0.9910000339150429, 0.1957500074058771, 192.0, 0.0, 64.0, 15.5, 8.0, 3.0, 40.0, 0.0, 0.0, 0.0, 1.629857058503394E9, 2021-08-24 20:04:18.503
116.0, -3147181.875, -3073182.0, -4321800.375, -4500000.375, -4500000.375, -4272399.75, -3276609.75, -3804365.25, -4500000.375, -4500000.375, -4500000.375, 4500000.0, 4500000.0, -4500000.375, -4500000.375, -4500000.375, 0.015500000678002834, 0.9910000339150429, 0.1957500074058771, 192.0, 0.0, 0.0, 0.0, 0.0, 0.0, 0.0, 0.0, 0.0, 0.0, 1.6298570585034003E9, 2021-08-24 20:04:18.503
118.0, -3134482.3125, -3050337.5625, -4323994.875, -4500000.375, -4500000.375, -4274605.125, -3257159.625, -3803293.125, -4500000.375, -4500000.375, -4500000.375, 4500000.0, 4500000.0, -4500000.375, -4500000.375, -4500000.375, 0.015500000678002834, 0.9910000339150429, 0.1957500074058771, 192.0, 0.0, 0.0, 0.0, 0.0, 0.0, 0.0, 0.0, 0.0, 0.0, 1.629857058503409E9, 2021-08-24 20:04:18.503
120.0, -3146451.0, -3071248.125, -4321828.125, -4500000.375, -4500000.375, -4272400.875, -3276355.5, -3804406.5, -4500000.375, -4500000.375, -4500000.375, 4500000.0, 4500000.0, -4500000.375, -4500000.375, -4500000.375, 0.015500000678002834, 0.9910000339150429, 0.1957500074058771, 192.0, 0.0, 0.0, 0.0, 0.0, 0.0, 0.0, 0.0, 0.0, 0.0, 1.6298570585034153E9, 2021-08-24 20:04:18.503
122.0, -3135358.3125, -3052659.375, -4323854.25, -4500000.375, -4500000.375, -4274379.375, -3257954.625, -3803143.125, -4500000.375, -4500000.375, -4500000.375, 4500000.0, 4500000.0, -4500000.375, -4500000.375, -4500000.375, 0.015500000678002834, 0.9910000339150429, 0.1957500074058771, 192.0, 0.0, 0.0, 0.0, 0.0, 0.0, 0.0, 0.0, 0.0, 0.0, 1.629857058981242E9, 2021-08-24 20:04:18.981
124.0, -3145322.625, -3068335.875, -4321630.125, -4500000.375, -4500000.375, -4272141.375, -3275014.125, -3804329.625, -4500000.375, -4500000.375, -4500000.375, 4500000.0, 4500000.0, -4500000.375, -4500000.375, -4500000.375, 0.019750000443309546, 0.9975000508129597, 0.20187500584870577, 192.0, 0.0, 96.0, 15.5, 48.0, 3.0, 64.0, 0.0, 0.0, 0.0, 1.6298570589814138E9, 2021-08-24 20:04:18.981
126.0, -3136600.125, -3055494.9375, -4323710.625, -4500000.375, -4500000.375, -4274040.375, -3259250.25, -3803134.125, -4500000.375, -4500000.375, -4500000.375, 4500000.0, 4500000.0, -4500000.375, -4500000.375, -4500000.375, 0.019750000443309546, 0.9975000508129597, 0.20187500584870577, 192.0, 0.0, 0.0, 0.0, 0.0, 0.0, 0.0, 0.0, 0.0, 0.0, 1.6298570589814208E9, 2021-08-24 20:04:18.981
128.0, -3143944.125, -3065751.1875, -4322083.5, -4500000.375, -4500000.375, -4272306.375, -3273448.125, -3804315.375, -4500000.375, -4500000.375, -4500000.375, 4500000.0, 4500000.0, -4500000.375, -4500000.375, -4500000.375, 0.019750000443309546, 0.9975000508129597, 0.20187500584870577, 192.0, 0.0, 0.0, 0.0, 0.0, 0.0, 0.0, 0.0, 0.0, 0.0, 1.629857058981428E9, 2021-08-24 20:04:18.981
130.0, -3137783.0625, -3059069.8125, -4323241.125, -4500000.375, -4500000.375, -4273443.375, -3260842.125, -3802921.5, -4500000.375, -4500000.375, -4500000.375, 4500000.0, 4500000.0, -4500000.375, -4500000.375, -4500000.375, 0.019750000443309546, 0.9975000508129597, 0.20187500584870577, 192.0, 0.0, 0.0, 0.0, 0.0, 0.0, 0.0, 0.0, 0.0, 0.0, 1.6298570589814346E9, 2021-08-24 20:04:18.981
132.0, -3142109.4375, -3062544.375, -4322057.25, -4500000.375, -4500000.375, -4272338.25, -3271263.75, -3804102.375, -4500000.375, -4500000.375, -4500000.375, 4500000.0, 4500000.0, -4500000.375, -4500000.375, -4500000.375, 0.019750000443309546, 0.9975000508129597, 0.20187500584870577, 192.0, 0.0, 0.0, 0.0, 0.0, 0.0, 0.0, 0.0, 0.0, 0.0, 1.6298570589814415E9, 2021-08-24 20:04:18.981
134.0, -3139872.0, -3062445.75, -4323134.25, -4500000.375, -4500000.375, -4273524.375, -3263462.625, -3803247.0, -4500000.375, -4500000.375, -4500000.375, 4500000.0, 4500000.0, -4500000.375, -4500000.375, -4500000.375, 0.022875000489875674, 0.9957500342279673, 0.20593750709667802, 192.0, 0.0, 104.0, 15.5, 8.0, 3.0, 72.0, 0.0, 0.0, 0.0, 1.6298570589814613E9, 2021-08-24 20:04:18.981
136.0, -3140895.375, -3059040.375, -4322460.0, -4500000.375, -4500000.375, -4272828.0, -3269252.625, -3804510.0, -4500000.375, -4500000.375, -4500000.375, 4500000.0, 4500000.0, -4500000.375, -4500000.375, -4500000.375, 0.022875000489875674, 0.9957500342279673, 0.20593750709667802, 192.0, 0.0, 0.0, 0.0, 0.0, 0.0, 0.0, 0.0, 0.0, 0.0, 1.6298570589814677E9, 2021-08-24 20:04:18.981
138.0, -3141804.75, -3065655.75, -4322673.0, -4500000.375, -4500000.375, -4273110.75, -3265837.5, -3803518.125, -4500000.375, -4500000.375, -4500000.375, 4500000.0, 4500000.0, -4500000.375, -4500000.375, -4500000.375, 0.022875000489875674, 0.9957500342279673, 0.20593750709667802, 192.0, 0.0, 0.0, 0.0, 0.0, 0.0, 0.0, 0.0, 0.0, 0.0, 1.6298570589814744E9, 2021-08-24 20:04:18.981
140.0, -3139335.0, -3055747.6875, -4322823.75, -4500000.375, -4500000.375, -4273113.375, -3266678.25, -3804511.5, -4500000.375, -4500000.375, -4500000.375, 4500000.0, 4500000.0, -4500000.375, -4500000.375, -4500000.375, 0.022875000489875674, 0.9957500342279673, 0.20593750709667802, 192.0, 0.0, 0.0, 0.0, 0.0, 0.0, 0.0, 0.0, 0.0, 0.0, 1.6298570589814813E9, 2021-08-24 20:04:18.981
142.0, -3143742.9375, -3068924.25, -4322554.5, -4500000.375, -4500000.375, -4272852.75, -3268336.875, -3803728.875, -4500000.375, -4500000.375, -4500000.375, 4500000.0, 4500000.0, -4500000.375, -4500000.375, -4500000.375, 0.022875000489875674, 0.9957500342279673, 0.20593750709667802, 192.0, 0.0, 0.0, 0.0, 0.0, 0.0, 0.0, 0.0, 0.0, 0.0, 1.6298570589814878E9, 2021-08-24 20:04:18.981
144.0, -3137734.125, -3052919.4375, -4323244.5, -4500000.375, -4500000.375, -4273553.625, -3264306.75, -3804409.125, -4500000.375, -4500000.375, -4500000.375, 4500000.0, 4500000.0, -4500000.375, -4500000.375, -4500000.375, 0.01600000075995922, 0.9860000610351562, 0.21000000834465027, 192.0, 0.0, 64.0, 15.0, 104.0, 3.0, 72.0, 0.0, 0.0, 0.0, 1.6298570589814944E9, 2021-08-24 20:04:18.981
146.0, -3145115.625, -3071422.5, -4322310.375, -4500000.375, -4500000.375, -4272719.625, -3270891.0, -3803904.375, -4500000.375, -4500000.375, -4500000.375, 4500000.0, 4500000.0, -4500000.375, -4500000.375, -4500000.375, 0.01600000075995922, 0.9860000610351562, 0.21000000834465027, 192.0, 0.0, 0.0, 0.0, 0.0, 0.0, 0.0, 0.0, 0.0, 0.0, 1.629857058981501E9, 2021-08-24 20:04:18.981
148.0, -3136250.4375, -3050434.125, -4323417.0, -4500000.375, -4500000.375, -4273834.5, -3261699.0, -3804172.5, -4500000.375, -4500000.375, -4500000.375, 4500000.0, 4500000.0, -4500000.375, -4500000.375, -4500000.375, 0.01600000075995922, 0.9860000610351562, 0.21000000834465027, 192.0, 0.0, 0.0, 0.0, 0.0, 0.0, 0.0, 0.0, 0.0, 0.0, 1.6298570589815075E9, 2021-08-24 20:04:18.981
150.0, -3146481.0, -3073410.0, -4322244.0, -4500000.375, -4500000.375, -4272741.75, -3273027.375, -3804086.625, -4500000.375, -4500000.375, -4500000.375, 4500000.0, 4500000.0, -4500000.375, -4500000.375, -4500000.375, 0.01600000075995922, 0.9860000610351562, 0.21000000834465027, 192.0, 0.0, 0.0, 0.0, 0.0, 0.0, 0.0, 0.0, 0.0, 0.0, 1.629857058981514E9, 2021-08-24 20:04:18.981
152.0, -3135415.6875, -3048925.125, -4323715.875, -4500000.375, -4500000.375, -4274241.0, -3259746.375, -3804075.0, -4500000.375, -4500000.375, -4500000.375, 4500000.0, 4500000.0, -4500000.375, -4500000.375, -4500000.375, 0.01600000075995922, 0.9860000610351562, 0.21000000834465027, 192.0, 0.0, 0.0, 0.0, 0.0, 0.0, 0.0, 0.0, 0.0, 0.0, 1.6298570589815269E9, 2021-08-24 20:04:18.981
154.0, -3147368.625, -3074518.875, -4321813.875, -4500000.375, -4500000.375, -4272286.125, -3274532.25, -3804078.0, -4500000.375, -4500000.375, -4500000.375, 4500000.0, 4500000.0, -4500000.375, -4500000.375, -4500000.375, 0.006000000052154064, 0.9780000448226929, 0.20800000429153442, 192.0, 0.0, 24.0, 15.0, 72.0, 3.0, 64.0, 0.0, 0.0, 0.0, 1.6298570589815333E9, 2021-08-24 20:04:18.981
156.0, -3134777.25, -3048231.5625, -4324025.625, -4500000.375, -4500000.375, -4274423.25, -3257823.0, -3803971.5, -4500000.375, -4500000.375, -4500000.375, 4500000.0, 4500000.0, -4500000.375, -4500000.375, -4500000.375, 0.006000000052154064, 0.9780000448226929, 0.20800000429153442, 192.0, 0.0, 0.0, 0.0, 0.0, 0.0, 0.0, 0.0, 0.0, 0.0, 1.62985705898154E9, 2021-08-24 20:04:18.981
158.0, -3148049.625, -3075120.1875, -4322103.75, -4500000.375, -4500000.375, -4272531.75, -3275666.625, -3804715.5, -4500000.375, -4500000.375, -4500000.375, 4500000.0, 4500000.0, -4500000.375, -4500000.375, -4500000.375, 0.006000000052154064, 0.9780000448226929, 0.20800000429153442, 192.0, 0.0, 0.0, 0.0, 0.0, 0.0, 0.0, 0.0, 0.0, 0.0, 1.6298570589815469E9, 2021-08-24 20:04:18.981
160.0, -3134270.4375, -3048649.5, -4324108.5, -4500000.375, -4500000.375, -4274569.875, -3256711.5, -3803881.875, -4500000.375, -4500000.375, -4500000.375, 4500000.0, 4500000.0, -4500000.375, -4500000.375, -4500000.375, 0.006000000052154064, 0.9780000448226929, 0.20800000429153442, 192.0, 0.0, 0.0, 0.0, 0.0, 0.0, 0.0, 0.0, 0.0, 0.0, 1.6298570589815533E9, 2021-08-24 20:04:18.981
162.0, -3147632.625, -3074554.6875, -4321814.625, -4500000.375, -4500000.375, -4272328.5, -3276097.5, -3804600.0, -4500000.375, -4500000.375, -4500000.375, 4500000.0, 4500000.0, -4500000.375, -4500000.375, -4500000.375, 0.006000000052154064, 0.9780000448226929, 0.20800000429153442, 192.0, 0.0, 0.0, 0.0, 0.0, 0.0, 0.0, 0.0, 0.0, 0.0, 1.62985705898156E9, 2021-08-24 20:04:18.981
164.0, -3134121.75, -3049701.9375, -4324373.25, -4500000.375, -4500000.375, -4274914.875, -3256477.125, -3803761.5, -4500000.375, -4500000.375, -4500000.375, 4500000.0, 4500000.0, -4500000.375, -4500000.375, -4500000.375, -0.0020000000949949026, 0.9820000529289246, 0.20600001513957977, 192.0, 127.5, 120.0, 15.0, 88.0, 3.0, 56.0, 0.0, 0.0, 0.0, 1.6298570589815664E9, 2021-08-24 20:04:18.981
166.0, -3147135.75, -3073347.1875, -4322355.375, -4500000.375, -4500000.375, -4272875.625, -3276122.625, -3804969.75, -4500000.375, -4500000.375, -4500000.375, 4500000.0, 4500000.0, -4500000.375, -4500000.375, -4500000.375, -0.0020000000949949026, 0.9820000529289246, 0.20600001513957977, 192.0, 0.0, 0.0, 0.0, 0.0, 0.0, 0.0, 0.0, 0.0, 0.0, 1.629857058981573E9, 2021-08-24 20:04:18.981
168.0, -3134742.9375, -3051705.0, -4324384.875, -4500000.375, -4500000.375, -4274944.875, -3256678.875, -3803592.75, -4500000.375, -4500000.375, -4500000.375, 4500000.0, 4500000.0, -4500000.375, -4500000.375, -4500000.375, -0.0020000000949949026, 0.9820000529289246, 0.20600001513957977, 192.0, 0.0, 0.0, 0.0, 0.0, 0.0, 0.0, 0.0, 0.0, 0.0, 1.6298570589815795E9, 2021-08-24 20:04:18.981
170.0, -3145978.125, -3071066.8125, -4322028.75, -4500000.375, -4500000.375, -4272592.875, -3275135.625, -3804556.125, -4500000.375, -4500000.375, -4500000.375, 4500000.0, 4500000.0, -4500000.375, -4500000.375, -4500000.375, -0.0020000000949949026, 0.9820000529289246, 0.20600001513957977, 192.0, 0.0, 0.0, 0.0, 0.0, 0.0, 0.0, 0.0, 0.0, 0.0, 1.6298570589815884E9, 2021-08-24 20:04:18.981
172.0, -3135496.6875, -3054102.375, -4324029.375, -4500000.375, -4500000.375, -4274528.625, -3257452.5, -3803294.25, -4500000.375, -4500000.375, -4500000.375, 4500000.0, 4500000.0, -4500000.375, -4500000.375, -4500000.375, -0.0020000000949949026, 0.9820000529289246, 0.20600001513957977, 192.0, 0.0, 0.0, 0.0, 0.0, 0.0, 0.0, 0.0, 0.0, 0.0, 1.6298570589815948E9, 2021-08-24 20:04:18.981
174.0, -3145100.0625, -3068549.25, -4322543.625, -4500000.375, -4500000.375, -4272934.125, -3274244.625, -3805014.75, -4500000.375, -4500000.375, -4500000.375, 4500000.0, 4500000.0, -4500000.375, -4500000.375, -4500000.375, 0.0020000000949949026, 0.9920000433921814, 0.19600000977516174, 192.0, 0.0, 8.0, 15.5, 0.0, 3.0, 16.0, 0.0, 0.0, 0.0, 1.6298570589816017E9, 2021-08-24 20:04:18.981
176.0, -3136866.1875, -3057124.125, -4323581.25, -4500000.375, -4500000.375, -4274004.375, -3259002.75, -3803258.625, -4500000.375, -4500000.375, -4500000.375, 4500000.0, 4500000.0, -4500000.375, -4500000.375, -4500000.375, 0.0020000000949949026, 0.9920000433921814, 0.19600000977516174, 192.0, 0.0, 0.0, 0.0, 0.0, 0.0, 0.0, 0.0, 0.0, 0.0, 1.629857058981608E9, 2021-08-24 20:04:18.981
178.0, -3143742.375, -3065201.8125, -4322601.75, -4500000.375, -4500000.375, -4272988.875, -3272374.5, -3805057.5, -4500000.375, -4500000.375, -4500000.375, 4500000.0, 4500000.0, -4500000.375, -4500000.375, -4500000.375, 0.0020000000949949026, 0.9920000433921814, 0.19600000977516174, 192.0, 0.0, 0.0, 0.0, 0.0, 0.0, 0.0, 0.0, 0.0, 0.0, 1.6298570589816148E9, 2021-08-24 20:04:18.981
180.0, -3138949.3125, -3060335.8125, -4323464.25, -4500000.375, -4500000.375, -4273817.625, -3261063.75, -3803637.75, -4500000.375, -4500000.375, -4500000.375, 4500000.0, 4500000.0, -4500000.375, -4500000.375, -4500000.375, 0.0020000000949949026, 0.9920000433921814, 0.19600000977516174, 192.0, 0.0, 0.0, 0.0, 0.0, 0.0, 0.0, 0.0, 0.0, 0.0, 1.6298570589816213E9, 2021-08-24 20:04:18.981
182.0, -3142356.1875, -3061718.8125, -4322753.625, -4500000.375, -4500000.375, -4273077.375, -3270041.625, -3805005.0, -4500000.375, -4500000.375, -4500000.375, 4500000.0, 4500000.0, -4500000.375, -4500000.375, -4500000.375, 0.0020000000949949026, 0.9920000433921814, 0.19600000977516174, 192.0, 0.0, 0.0, 0.0, 0.0, 0.0, 0.0, 0.0, 0.0, 0.0, 1.6298570589816284E9, 2021-08-24 20:04:18.981
184.0, -3140966.25, -3063873.75, -4323697.125, -4500000.375, -4500000.375, -4274129.25, -3263627.625, -3804024.0, -4500000.375, -4500000.375, -4500000.375, 4500000.0, 4500000.0, -4500000.375, -4500000.375, -4500000.375, 0.01600000075995922, 1.0, 0.1980000138282776, 192.0, 0.0, 64.0, 15.5, 32.0, 3.0, 24.0, 0.0, 0.0, 0.0, 1.629857058981635E9, 2021-08-24 20:04:18.981
186.0, -3140915.25, -3058494.75, -4323220.875, -4500000.375, -4500000.375, -4273654.5, -3267970.125, -3805147.875, -4500000.375, -4500000.375, -4500000.375, 4500000.0, 4500000.0, -4500000.375, -4500000.375, -4500000.375, 0.01600000075995922, 1.0, 0.1980000138282776, 192.0, 0.0, 0.0, 0.0, 0.0, 0.0, 0.0, 0.0, 0.0, 0.0, 1.629857058981644E9, 2021-08-24 20:04:18.981
188.0, -3142846.5, -3067266.1875, -4323361.5, -4500000.375, -4500000.375, -4273778.625, -3266152.875, -3804109.125, -4500000.375, -4500000.375, -4500000.375, 4500000.0, 4500000.0, -4500000.375, -4500000.375, -4500000.375, 0.01600000075995922, 1.0, 0.1980000138282776, 192.0, 0.0, 0.0, 0.0, 0.0, 0.0, 0.0, 0.0, 0.0, 0.0, 1.6298570589816504E9, 2021-08-24 20:04:18.981
190.0, -3139427.8125, -3055540.5, -4323577.875, -4500000.375, -4500000.375, -4273796.25, -3265389.0, -3804896.625, -4500000.375, -4500000.375, -4500000.375, 4500000.0, 4500000.0, -4500000.375, -4500000.375, -4500000.375, 0.01600000075995922, 1.0, 0.1980000138282776, 192.0, 0.0, 0.0, 0.0, 0.0, 0.0, 0.0, 0.0, 0.0, 0.0, 1.6298570589816573E9, 2021-08-24 20:04:18.981
192.0, -3144908.625, -3070368.9375, -4323300.75, -4500000.375, -4500000.375, -4273455.75, -3268654.875, -3804402.75, -4500000.375, -4500000.375, -4500000.375, 4500000.0, 4500000.0, -4500000.375, -4500000.375, -4500000.375, 0.023000000976026058, 1.0, 0.1940000131726265, 192.0, 0.0, 120.0, 15.5, 32.0, 2.5, 120.0, 0.0, 0.0, 0.0, 1.6298570589816637E9, 2021-08-24 20:04:18.981
194.0, -3137925.75, -3052654.5, -4323720.375, -4500000.375, -4500000.375, -4273858.875, -3262776.75, -3804771.375, -4500000.375, -4500000.375, -4500000.375, 4500000.0, 4500000.0, -4500000.375, -4500000.375, -4500000.375, 0.023000000976026058, 1.0, 0.1940000131726265, 192.0, 0.0, 0.0, 0.0, 0.0, 0.0, 0.0, 0.0, 0.0, 0.0, 1.6298570589816704E9, 2021-08-24 20:04:18.981
196.0, -3146084.625, -3072719.625, -4322937.375, -4500000.375, -4500000.375, -4273060.125, -3271027.5, -3804399.375, -4500000.375, -4500000.375, -4500000.375, 4500000.0, 4500000.0, -4500000.375, -4500000.375, -4500000.375, 0.023000000976026058, 1.0, 0.1940000131726265, 192.0, 0.0, 0.0, 0.0, 0.0, 0.0, 0.0, 0.0, 0.0, 0.0, 1.6298570589816768E9, 2021-08-24 20:04:18.981
198.0, -3136357.125, -3050540.4375, -4324095.75, -4500000.375, -4500000.375, -4274170.125, -3260713.875, -3804400.125, -4500000.375, -4500000.375, -4500000.375, 4500000.0, 4500000.0, -4500000.375, -4500000.375, -4500000.375, 0.023000000976026058, 1.0, 0.1940000131726265, 192.0, 0.0, 0.0, 0.0, 0.0, 0.0, 0.0, 0.0, 0.0, 0.0, 1.6298570589816835E9, 2021-08-24 20:04:18.981
200.0, -3147021.75, -3074403.0, -4322549.625, -4500000.375, -4500000.375, -4272591.375, -3273080.625, -3804178.875, -4500000.375, -4500000.375, -4500000.375, 4500000.0, 4500000.0, -4500000.375, -4500000.375, -4500000.375, 0.023000000976026058, 1.0, 0.1940000131726265, 192.0, 0.0, 0.0, 0.0, 0.0, 0.0, 0.0, 0.0, 0.0, 0.0, 1.62985705898169E9, 2021-08-24 20:04:18.981
202.0, -3135300.9375, -3049335.0, -4324315.5, -4500000.375, -4500000.375, -4274313.75, -3258708.375, -3804117.75, -4500000.375, -4500000.375, -4500000.375, 4500000.0, 4500000.0, -4500000.375, -4500000.375, -4500000.375, 0.03050000173971057, 0.9970000088214874, 0.19700000807642937, 192.0, 0.5, 24.0, 15.5, 8.0, 3.0, 32.0, 0.0, 0.0, 0.0, 1.6298570589816966E9, 2021-08-24 20:04:18.981
204.0, -3148011.0, -3075368.625, -4322497.5, -4500000.375, -4500000.375, -4272483.0, -3274621.125, -3804575.25, -4500000.375, -4500000.375, -4500000.375, 4500000.0, 4500000.0, -4500000.375, -4500000.375, -4500000.375, 0.03050000173971057, 0.9970000088214874, 0.19700000807642937, 192.0, 0.0, 0.0, 0.0, 0.0, 0.0, 0.0, 0.0, 0.0, 0.0, 1.6298570589817033E9, 2021-08-24 20:04:18.981
206.0, -3134959.125, -3048827.625, -4324480.5, -4500000.375, -4500000.375, -4274463.75, -3257326.875, -3804079.875, -4500000.375, -4500000.375, -4500000.375, 4500000.0, 4500000.0, -4500000.375, -4500000.375, -4500000.375, 0.03050000173971057, 0.9970000088214874, 0.19700000807642937, 192.0, 0.0, 0.0, 0.0, 0.0, 0.0, 0.0, 0.0, 0.0, 0.0, 1.6298570589817295E9, 2021-08-24 20:04:18.981
208.0, -3148144.5, -3075217.3125, -4322271.375, -4500000.375, -4500000.375, -4272421.5, -3275800.5, -3804669.375, -4500000.375, -4500000.375, -4500000.375, 4500000.0, 4500000.0, -4500000.375, -4500000.375, -4500000.375, 0.03050000173971057, 0.9970000088214874, 0.19700000807642937, 192.0, 0.0, 0.0, 0.0, 0.0, 0.0, 0.0, 0.0, 0.0, 0.0, 1.62985705898175E9, 2021-08-24 20:04:18.981
210.0, -3134250.0, -3048827.625, -4324292.25, -4500000.375, -4500000.375, -4274373.0, -3256200.0, -3803564.625, -4500000.375, -4500000.375, -4500000.375, 4500000.0, 4500000.0, -4500000.375, -4500000.375, -4500000.375, 0.03050000173971057, 0.9970000088214874, 0.19700000807642937, 192.0, 0.0, 0.0, 0.0, 0.0, 0.0, 0.0, 0.0, 0.0, 0.0, 1.6298570589817567E9, 2021-08-24 20:04:18.981
212.0, -3147605.625, -3074000.0625, -4322105.625, -4500000.375, -4500000.375, -4272169.875, -3275931.375, -3804453.0, -4500000.375, -4500000.375, -4500000.375, 4500000.0, 4500000.0, -4500000.375, -4500000.375, -4500000.375, 0.03325000195764005, 0.9925000220537186, 0.19750001095235348, 192.0, 0.5, 16.0, 15.0, 112.0, 3.0, 24.0, 0.0, 0.0, 0.0, 1.6298570589817636E9, 2021-08-24 20:04:18.981
214.0, -3134548.875, -3049923.0, -4324241.625, -4500000.375, -4500000.375, -4274325.375, -3256270.5, -3803460.0, -4500000.375, -4500000.375, -4500000.375, 4500000.0, 4500000.0, -4500000.375, -4500000.375, -4500000.375, 0.03325000195764005, 0.9925000220537186, 0.19750001095235348, 192.0, 0.0, 0.0, 0.0, 0.0, 0.0, 0.0, 0.0, 0.0, 0.0, 1.6298570589817836E9, 2021-08-24 20:04:18.981
216.0, -3147612.75, -3072440.625, -4322437.125, -4500000.375, -4500000.375, -4272531.75, -3276044.625, -3805035.0, -4500000.375, -4500000.375, -4500000.375, 4500000.0, 4500000.0, -4500000.375, -4500000.375, -4500000.375, 0.03325000195764005, 0.9925000220537186, 0.19750001095235348, 192.0, 0.0, 0.0, 0.0, 0.0, 0.0, 0.0, 0.0, 0.0, 0.0, 1.62985705898179E9, 2021-08-24 20:04:18.981
218.0, -3135866.25, -3052092.9375, -4324462.125, -4500000.375, -4500000.375, -4274535.375, -3257146.125, -3803769.0, -4500000.375, -4500000.375, -4500000.375, 4500000.0, 4500000.0, -4500000.375, -4500000.375, -4500000.375, 0.03325000195764005, 0.9925000220537186, 0.19750001095235348, 192.0, 0.0, 0.0, 0.0, 0.0, 0.0, 0.0, 0.0, 0.0, 0.0, 1.6298570589817967E9, 2021-08-24 20:04:18.981
220.0, -3146709.375, -3070121.625, -4322424.75, -4500000.375, -4500000.375, -4272505.125, -3275181.75, -3805006.125, -4500000.375, -4500000.375, -4500000.375, 4500000.0, 4500000.0, -4500000.375, -4500000.375, -4500000.375, 0.03325000195764005, 0.9925000220537186, 0.19750001095235348, 192.0, 0.0, 0.0, 0.0, 0.0, 0.0, 0.0, 0.0, 0.0, 0.0, 1.629857058981805E9, 2021-08-24 20:04:18.981
222.0, -3137140.3125, -3054962.25, -4324595.25, -4500000.375, -4500000.375, -4274644.5, -3258366.0, -3803922.375, -4500000.375, -4500000.375, -4500000.375, 4500000.0, 4500000.0, -4500000.375, -4500000.375, -4500000.375, 0.0306250014109537, 0.9912500455975533, 0.19975000899285078, 192.0, 0.0, 112.0, 15.0, 120.0, 3.0, 40.0, 0.0, 0.0, 0.0, 1.629857058981812E9, 2021-08-24 20:04:18.981
224.0, -3145755.0, -3067486.6875, -4322764.125, -4500000.375, -4500000.375, -4272749.625, -3273862.875, -3805228.125, -4500000.375, -4500000.375, -4500000.375, 4500000.0, 4500000.0, -4500000.375, -4500000.375, -4500000.375, 0.0306250014109537, 0.9912500455975533, 0.19975000899285078, 192.0, 0.0, 0.0, 0.0, 0.0, 0.0, 0.0, 0.0, 0.0, 0.0, 1.6298570589818184E9, 2021-08-24 20:04:18.981
226.0, -3138589.3125, -3058280.25, -4324348.5, -4500000.375, -4500000.375, -4274400.75, -3259891.5, -3803865.75, -4500000.375, -4500000.375, -4500000.375, 4500000.0, 4500000.0, -4500000.375, -4500000.375, -4500000.375, 0.0306250014109537, 0.9912500455975533, 0.19975000899285078, 192.0, 0.0, 0.0, 0.0, 0.0, 0.0, 0.0, 0.0, 0.0, 0.0, 1.6298570589818273E9, 2021-08-24 20:04:18.981
228.0, -3144118.875, -3064454.625, -4323046.5, -4500000.375, -4500000.375, -4273129.5, -3272027.625, -3805128.375, -4500000.375, -4500000.375, -4500000.375, 4500000.0, 4500000.0, -4500000.375, -4500000.375, -4500000.375, 0.0306250014109537, 0.9912500455975533, 0.19975000899285078, 192.0, 0.0, 0.0, 0.0, 0.0, 0.0, 0.0, 0.0, 0.0, 0.0, 1.6298570589818337E9, 2021-08-24 20:04:18.981
230.0, -3139894.5, -3061782.5625, -4324060.5, -4500000.375, -4500000.375, -4274138.625, -3261987.0, -3803689.875, -4500000.375, -4500000.375, -4500000.375, 4500000.0, 4500000.0, -4500000.375, -4500000.375, -4500000.375, 0.0306250014109537, 0.9912500455975533, 0.19975000899285078, 192.0, 0.0, 0.0, 0.0, 0.0, 0.0, 0.0, 0.0, 0.0, 0.0, 1.6298570589818408E9, 2021-08-24 20:04:18.981
232.0, -3142327.125, -3061332.0, -4323557.625, -4500000.375, -4500000.375, -4273670.625, -3269979.0, -3805195.125, -4500000.375, -4500000.375, -4500000.375, 4500000.0, 4500000.0, -4500000.375, -4500000.375, -4500000.375, 0.026000000536441803, 0.9900000691413879, 0.20600001513957977, 192.0, 0.0, 104.0, 15.0, 120.0, 3.0, 56.0, 0.0, 0.0, 0.0, 1.6298570589818473E9, 2021-08-24 20:04:18.981
234.0, -3141698.4375, -3065392.3125, -4323799.5, -4500000.375, -4500000.375, -4273979.625, -3264531.375, -3803949.0, -4500000.375, -4500000.375, -4500000.375, 4500000.0, 4500000.0, -4500000.375, -4500000.375, -4500000.375, 0.026000000536441803, 0.9900000691413879, 0.20600001513957977, 192.0, 0.0, 0.0, 0.0, 0.0, 0.0, 0.0, 0.0, 0.0, 0.0, 1.6298570589818542E9, 2021-08-24 20:04:18.981
236.0, -3140773.6875, -3057888.5625, -4323636.0, -4500000.375, -4500000.375, -4273772.625, -3267206.625, -3805130.25, -4500000.375, -4500000.375, -4500000.375, 4500000.0, 4500000.0, -4500000.375, -4500000.375, -4500000.375, 0.026000000536441803, 0.9900000691413879, 0.20600001513957977, 192.0, 0.0, 0.0, 0.0, 0.0, 0.0, 0.0, 0.0, 0.0, 0.0, 1.6298570589818609E9, 2021-08-24 20:04:18.981
238.0, -3143746.6875, -3068724.75, -4323856.5, -4500000.375, -4500000.375, -4274010.75, -3267299.25, -3804408.75, -4500000.375, -4500000.375, -4500000.375, 4500000.0, 4500000.0, -4500000.375, -4500000.375, -4500000.375, 0.026000000536441803, 0.9900000691413879, 0.20600001513957977, 192.0, 0.0, 0.0, 0.0, 0.0, 0.0, 0.0, 0.0, 0.0, 0.0, 1.6298570589818676E9, 2021-08-24 20:04:18.981
240.0, -3139080.1875, -3054962.25, -4324166.625, -4500000.375, -4500000.375, -4274307.0, -3265159.875, -3804955.125, -4500000.375, -4500000.375, -4500000.375, 4500000.0, 4500000.0, -4500000.375, -4500000.375, -4500000.375, 0.026000000536441803, 0.9900000691413879, 0.20600001513957977, 192.0, 0.0, 0.0, 0.0, 0.0, 0.0, 0.0, 0.0, 0.0, 0.0, 1.6298570589818742E9, 2021-08-24 20:04:18.981
242.0, -3145279.3125, -3071562.0, -4323707.25, -4500000.375, -4500000.375, -4273932.375, -3270084.75, -3804420.75, -4500000.375, -4500000.375, -4500000.375, 4500000.0, 4500000.0, -4500000.375, -4500000.375, -4500000.375, 0.02200000174343586, 0.9880000352859497, 0.20600001513957977, 192.0, 0.0, 88.0, 15.0, 112.0, 3.0, 56.0, 0.0, 0.0, 0.0, 1.6298570594592507E9, 2021-08-24 20:04:19.459
244.0, -3137656.5, -3052619.625, -4324322.625, -4500000.375, -4500000.375, -4274568.75, -3263001.375, -3804694.5, -4500000.375, -4500000.375, -4500000.375, 4500000.0, 4500000.0, -4500000.375, -4500000.375, -4500000.375, 0.02200000174343586, 0.9880000352859497, 0.20600001513957977, 192.0, 0.0, 0.0, 0.0, 0.0, 0.0, 0.0, 0.0, 0.0, 0.0, 1.6298570594593198E9, 2021-08-24 20:04:19.459
246.0, -3146836.125, -3073994.625, -4323433.875, -4500000.375, -4500000.375, -4273734.0, -3272538.75, -3804589.875, -4500000.375, -4500000.375, -4500000.375, 4500000.0, 4500000.0, -4500000.375, -4500000.375, -4500000.375, 0.02200000174343586, 0.9880000352859497, 0.20600001513957977, 192.0, 0.0, 0.0, 0.0, 0.0, 0.0, 0.0, 0.0, 0.0, 0.0, 1.629857059459435E9, 2021-08-24 20:04:19.459
248.0, -3136490.25, -3050668.125, -4324281.75, -4500000.375, -4500000.375, -4274541.375, -3260524.5, -3804311.625, -4500000.375, -4500000.375, -4500000.375, 4500000.0, 4500000.0, -4500000.375, -4500000.375, -4500000.375, 0.02200000174343586, 0.9880000352859497, 0.20600001513957977, 192.0, 0.0, 0.0, 0.0, 0.0, 0.0, 0.0, 0.0, 0.0, 0.0, 1.6298570594594426E9, 2021-08-24 20:04:19.459
250.0, -3147792.375, -3075365.8125, -4323008.25, -4500000.375, -4500000.375, -4273177.125, -3273918.375, -3804487.5, -4500000.375, -4500000.375, -4500000.375, 4500000.0, 4500000.0, -4500000.375, -4500000.375, -4500000.375, 0.02200000174343586, 0.9880000352859497, 0.20600001513957977, 192.0, 0.0, 0.0, 0.0, 0.0, 0.0, 0.0, 0.0, 0.0, 0.0, 1.6298570594594505E9, 2021-08-24 20:04:19.459
252.0, -3135749.4375, -3049691.25, -4324760.25, -4500000.375, -4500000.375, -4274888.625, -3258733.5, -3804304.875, -4500000.375, -4500000.375, -4500000.375, 4500000.0, 4500000.0, -4500000.375, -4500000.375, -4500000.375, 0.020000001415610313, 0.9860000610351562, 0.20200000703334808, 192.0, 0.0, 80.0, 15.0, 104.0, 3.0, 40.0, 0.0, 0.0, 0.0, 1.6298570594594593E9, 2021-08-24 20:04:19.459
254.0, -3148775.25, -3076217.25, -4322900.625, -4500000.375, -4500000.375, -4273044.0, -3275627.625, -3804851.625, -4500000.375, -4500000.375, -4500000.375, 4500000.0, 4500000.0, -4500000.375, -4500000.375, -4500000.375, 0.020000001415610313, 0.9860000610351562, 0.20200000703334808, 192.0, 0.0, 0.0, 0.0, 0.0, 0.0, 0.0, 0.0, 0.0, 0.0, 1.6298570594595103E9, 2021-08-24 20:04:19.459
0.0, -3135550.875, -3049647.1875, -4324996.5, -4500000.375, -4500000.375, -4275125.625, -3257940.0, -3804433.125, -4500000.375, -4500000.375, -4500000.375, 4500000.0, 4500000.0, -4500000.375, -4500000.375, -4500000.375, 0.020000001415610313, 0.9860000610351562, 0.20200000703334808, 192.0, 0.0, 0.0, 0.0, 0.0, 0.0, 0.0, 0.0, 0.0, 0.0, 1.629857059459519E9, 2021-08-24 20:04:19.459
2.0, -3148923.375, -3075957.0, -4322630.625, -4500000.375, -4500000.375, -4272723.75, -3276492.75, -3805064.25, -4500000.375, -4500000.375, -4500000.375, 4500000.0, 4500000.0, -4500000.375, -4500000.375, -4500000.375, 0.020000001415610313, 0.9860000610351562, 0.20200000703334808, 192.0, 0.0, 0.0, 0.0, 0.0, 0.0, 0.0, 0.0, 0.0, 0.0, 1.6298570594595275E9, 2021-08-24 20:04:19.459
4.0, -3135496.125, -3050219.625, -4324997.625, -4500000.375, -4500000.375, -4275070.125, -3257190.75, -3804277.125, -4500000.375, -4500000.375, -4500000.375, 4500000.0, 4500000.0, -4500000.375, -4500000.375, -4500000.375, 0.020000001415610313, 0.9860000610351562, 0.20200000703334808, 192.0, 0.0, 0.0, 0.0, 0.0, 0.0, 0.0, 0.0, 0.0, 0.0, 1.629857059459551E9, 2021-08-24 20:04:19.459
6.0, -3148878.75, -3074795.625, -4322904.75, -4500000.375, -4500000.375, -4273068.75, -3277233.75, -3805578.375, -4500000.375, -4500000.375, -4500000.375, 4500000.0, 4500000.0, -4500000.375, -4500000.375, -4500000.375, 0.02200000174343586, 0.9920000433921814, 0.20600001513957977, 192.0, 0.0, 88.0, 15.5, 0.0, 3.0, 56.0, 0.0, 0.0, 0.0, 1.6298570594595585E9, 2021-08-24 20:04:19.459
8.0, -3136042.3125, -3051726.5625, -4325253.375, -4500000.375, -4500000.375, -4275417.75, -3257814.375, -3804655.875, -4500000.375, -4500000.375, -4500000.375, 4500000.0, 4500000.0, -4500000.375, -4500000.375, -4500000.375, 0.02200000174343586, 0.9920000433921814, 0.20600001513957977, 192.0, 0.0, 0.0, 0.0, 0.0, 0.0, 0.0, 0.0, 0.0, 0.0, 1.6298570594595673E9, 2021-08-24 20:04:19.459
10.0, -3147850.875, -3072598.875, -4322391.375, -4500000.375, -4500000.375, -4272501.75, -3276325.125, -3805146.75, -4500000.375, -4500000.375, -4500000.375, 4500000.0, 4500000.0, -4500000.375, -4500000.375, -4500000.375, 0.02200000174343586, 0.9920000433921814, 0.20600001513957977, 192.0, 0.0, 0.0, 0.0, 0.0, 0.0, 0.0, 0.0, 0.0, 0.0, 1.6298570594595757E9, 2021-08-24 20:04:19.459
12.0, -3136609.875, -3053706.0, -4324703.625, -4500000.375, -4500000.375, -4274757.75, -3257972.625, -3803907.375, -4500000.375, -4500000.375, -4500000.375, 4500000.0, 4500000.0, -4500000.375, -4500000.375, -4500000.375, 0.02200000174343586, 0.9920000433921814, 0.20600001513957977, 192.0, 0.0, 0.0, 0.0, 0.0, 0.0, 0.0, 0.0, 0.0, 0.0, 1.6298570594595857E9, 2021-08-24 20:04:19.459
14.0, -3147490.875, -3070213.3125, -4322808.75, -4500000.375, -4500000.375, -4272807.75, -3275452.125, -3805336.125, -4500000.375, -4500000.375, -4500000.375, 4500000.0, 4500000.0, -4500000.375, -4500000.375, -4500000.375, 0.02200000174343586, 0.9920000433921814, 0.20600001513957977, 192.0, 0.0, 0.0, 0.0, 0.0, 0.0, 0.0, 0.0, 0.0, 0.0, 1.6298570594595933E9, 2021-08-24 20:04:19.459
16.0, -3138861.1875, -3056892.375, -4324900.5, -4500000.375, -4500000.375, -4274872.875, -3259727.625, -3804249.375, -4500000.375, -4500000.375, -4500000.375, 4500000.0, 4500000.0, -4500000.375, -4500000.375, -4500000.375, 0.02200000174343586, 0.9880000352859497, 0.21400001645088196, 192.0, 0.0, 88.0, 15.0, 112.0, 3.0, 88.0, 0.0, 0.0, 0.0, 1.6298570594596007E9, 2021-08-24 20:04:19.459
18.0, -3146826.0, -3067563.9375, -4323385.5, -4500000.375, -4500000.375, -4273311.375, -3274455.375, -3805683.0, -4500000.375, -4500000.375, -4500000.375, 4500000.0, 4500000.0, -4500000.375, -4500000.375, -4500000.375, 0.02200000174343586, 0.9880000352859497, 0.21400001645088196, 192.0, 0.0, 0.0, 0.0, 0.0, 0.0, 0.0, 0.0, 0.0, 0.0, 1.6298570594596083E9, 2021-08-24 20:04:19.459
20.0, -3140510.8125, -3060108.375, -4324821.0, -4500000.375, -4500000.375, -4274786.625, -3261589.125, -3804167.25, -4500000.375, -4500000.375, -4500000.375, 4500000.0, 4500000.0, -4500000.375, -4500000.375, -4500000.375, 0.02200000174343586, 0.9880000352859497, 0.21400001645088196, 192.0, 0.0, 0.0, 0.0, 0.0, 0.0, 0.0, 0.0, 0.0, 0.0, 1.629857059459617E9, 2021-08-24 20:04:19.459
22.0, -3145317.375, -3064258.875, -4323674.25, -4500000.375, -4500000.375, -4273633.125, -3272607.375, -3805542.75, -4500000.375, -4500000.375, -4500000.375, 4500000.0, 4500000.0, -4500000.375, -4500000.375, -4500000.375, 0.02200000174343586, 0.9880000352859497, 0.21400001645088196, 192.0, 0.0, 0.0, 0.0, 0.0, 0.0, 0.0, 0.0, 0.0, 0.0, 1.6298570594596245E9, 2021-08-24 20:04:19.459
24.0, -3142561.125, -3063656.4375, -4324713.75, -4500000.375, -4500000.375, -4274721.0, -3264263.625, -3804505.5, -4500000.375, -4500000.375, -4500000.375, 4500000.0, 4500000.0, -4500000.375, -4500000.375, -4500000.375, 0.02200000174343586, 0.9880000352859497, 0.2160000130534172, 192.0, 0.0, 88.0, 15.0, 112.0, 3.0, 104.0, 0.0, 0.0, 0.0, 1.6298570594596329E9, 2021-08-24 20:04:19.459
26.0, -3143912.4375, -3060892.125, -4324048.5, -4500000.375, -4500000.375, -4274050.125, -3270689.25, -3805727.25, -4500000.375, -4500000.375, -4500000.375, 4500000.0, 4500000.0, -4500000.375, -4500000.375, -4500000.375, 0.02200000174343586, 0.9880000352859497, 0.2160000130534172, 192.0, 0.0, 0.0, 0.0, 0.0, 0.0, 0.0, 0.0, 0.0, 0.0, 1.6298570594596465E9, 2021-08-24 20:04:19.459
28.0, -3144239.625, -3066940.5, -4324219.5, -4500000.375, -4500000.375, -4274190.0, -3266526.75, -3804479.25, -4500000.375, -4500000.375, -4500000.375, 4500000.0, 4500000.0, -4500000.375, -4500000.375, -4500000.375, 0.02200000174343586, 0.9880000352859497, 0.2160000130534172, 192.0, 0.0, 0.0, 0.0, 0.0, 0.0, 0.0, 0.0, 0.0, 0.0, 1.6298570594596548E9, 2021-08-24 20:04:19.459
30.0, -3142106.25, -3057493.6875, -4324132.875, -4500000.375, -4500000.375, -4274076.75, -3267939.0, -3805483.5, -4500000.375, -4500000.375, -4500000.375, 4500000.0, 4500000.0, -4500000.375, -4500000.375, -4500000.375, 0.02200000174343586, 0.9880000352859497, 0.2160000130534172, 192.0, 0.0, 0.0, 0.0, 0.0, 0.0, 0.0, 0.0, 0.0, 0.0, 1.6298570594596624E9, 2021-08-24 20:04:19.459
32.0, -3146015.25, -3070158.0, -4323981.375, -4500000.375, -4500000.375, -4273863.375, -3269125.875, -3804695.625, -4500000.375, -4500000.375, -4500000.375, 4500000.0, 4500000.0, -4500000.375, -4500000.375, -4500000.375, 0.02200000174343586, 0.9880000352859497, 0.2160000130534172, 192.0, 0.0, 0.0, 0.0, 0.0, 0.0, 0.0, 0.0, 0.0, 0.0, 1.629857059459678E9, 2021-08-24 20:04:19.459
34.0, -3140627.8125, -3054919.875, -4324545.75, -4500000.375, -4500000.375, -4274318.25, -3265429.5, -3805335.375, -4500000.375, -4500000.375, -4500000.375, 4500000.0, 4500000.0, -4500000.375, -4500000.375, -4500000.375, 0.02400000113993883, 0.9860000312328339, 0.2160000093281269, 192.0, 0.0, 104.0, 15.0, 96.0, 3.0, 96.0, 0.0, 0.0, 0.0, 1.629857059459685E9, 2021-08-24 20:04:19.459
36.0, -3147848.25, -3073115.4375, -4323973.875, -4500000.375, -4500000.375, -4273678.875, -3271825.875, -3804905.25, -4500000.375, -4500000.375, -4500000.375, 4500000.0, 4500000.0, -4500000.375, -4500000.375, -4500000.375, 0.02400000113993883, 0.9860000312328339, 0.2160000093281269, 192.0, 0.0, 0.0, 0.0, 0.0, 0.0, 0.0, 0.0, 0.0, 0.0, 1.6298570594596937E9, 2021-08-24 20:04:19.459
38.0, -3139458.375, -3052785.375, -4325014.5, -4500000.375, -4500000.375, -4274712.375, -3263439.0, -3805192.875, -4500000.375, -4500000.375, -4500000.375, 4500000.0, 4500000.0, -4500000.375, -4500000.375, -4500000.375, 0.02400000113993883, 0.9860000312328339, 0.2160000093281269, 192.0, 0.0, 0.0, 0.0, 0.0, 0.0, 0.0, 0.0, 0.0, 0.0, 1.6298570594597027E9, 2021-08-24 20:04:19.459
40.0, -3149120.25, -3075209.8125, -4323573.375, -4500000.375, -4500000.375, -4273264.125, -3274119.75, -3804946.125, -4500000.375, -4500000.375, -4500000.375, 4500000.0, 4500000.0, -4500000.375, -4500000.375, -4500000.375, 0.02400000113993883, 0.9860000312328339, 0.2160000093281269, 192.0, 0.0, 0.0, 0.0, 0.0, 0.0, 0.0, 0.0, 0.0, 0.0, 1.6298570594597108E9, 2021-08-24 20:04:19.459
42.0, -3138148.875, -3051022.125, -4325019.375, -4500000.375, -4500000.375, -4274680.875, -3261339.0, -3804834.375, -4500000.375, -4500000.375, -4500000.375, 4500000.0, 4500000.0, -4500000.375, -4500000.375, -4500000.375, 0.02400000113993883, 0.9860000312328339, 0.2160000093281269, 192.0, 0.0, 0.0, 0.0, 0.0, 0.0, 0.0, 0.0, 0.0, 0.0, 1.62985705945972E9, 2021-08-24 20:04:19.459
44.0, -3150205.5, -3076420.5, -4323556.5, -4500000.375, -4500000.375, -4273206.0, -3276073.875, -3805219.5, -4500000.375, -4500000.375, -4500000.375, 4500000.0, 4500000.0, -4500000.375, -4500000.375, -4500000.375, 0.025000000838190317, 0.9860000461339951, 0.21200000680983067, 192.0, 0.0, 104.0, 15.0, 104.0, 3.0, 64.0, 0.0, 0.0, 0.0, 1.6298570594597297E9, 2021-08-24 20:04:19.459
46.0, -3137442.375, -3050323.6875, -4325346.0, -4500000.375, -4500000.375, -4275011.25, -3259925.625, -3804739.125, -4500000.375, -4500000.375, -4500000.375, 4500000.0, 4500000.0, -4500000.375, -4500000.375, -4500000.375, 0.025000000838190317, 0.9860000461339951, 0.21200000680983067, 192.0, 0.0, 0.0, 0.0, 0.0, 0.0, 0.0, 0.0, 0.0, 0.0, 1.6298570594597387E9, 2021-08-24 20:04:19.459
48.0, -3150486.0, -3076743.375, -4323211.5, -4500000.375, -4500000.375, -4272815.25, -3277217.25, -3805103.625, -4500000.375, -4500000.375, -4500000.375, 4500000.0, 4500000.0, -4500000.375, -4500000.375, -4500000.375, 0.025000000838190317, 0.9860000461339951, 0.21200000680983067, 192.0, 0.0, 0.0, 0.0, 0.0, 0.0, 0.0, 0.0, 0.0, 0.0, 1.6298570594597688E9, 2021-08-24 20:04:19.459
50.0, -3136914.0, -3050278.6875, -4325085.0, -4500000.375, -4500000.375, -4274643.375, -3258656.625, -3804255.75, -4500000.375, -4500000.375, -4500000.375, 4500000.0, 4500000.0, -4500000.375, -4500000.375, -4500000.375, 0.025000000838190317, 0.9860000461339951, 0.21200000680983067, 192.0, 0.0, 0.0, 0.0, 0.0, 0.0, 0.0, 0.0, 0.0, 0.0, 1.6298570594597795E9, 2021-08-24 20:04:19.459
52.0, -3150821.625, -3076391.625, -4323195.0, -4500000.375, -4500000.375, -4272759.75, -3278145.0, -3805463.625, -4500000.375, -4500000.375, -4500000.375, 4500000.0, 4500000.0, -4500000.375, -4500000.375, -4500000.375, 0.025000000838190317, 0.9860000461339951, 0.21200000680983067, 192.0, 0.0, 0.0, 0.0, 0.0, 0.0, 0.0, 0.0, 0.0, 0.0, 1.6298570594597895E9, 2021-08-24 20:04:19.459
54.0, -3137665.5, -3051613.875, -4325671.875, -4500000.375, -4500000.375, -4275271.125, -3258891.75, -3804659.625, -4500000.375, -4500000.375, -4500000.375, 4500000.0, 4500000.0, -4500000.375, -4500000.375, -4500000.375, 0.026500000851228833, 0.9880000576376915, 0.2080000089481473, 192.0, 0.0, 112.0, 15.0, 120.0, 3.0, 48.0, 0.0, 0.0, 0.0, 1.6298570594597998E9, 2021-08-24 20:04:19.459
56.0, -3150843.75, -3075309.0, -4323504.0, -4500000.375, -4500000.375, -4273099.875, -3278575.5, -3805879.5, -4500000.375, -4500000.375, -4500000.375, 4500000.0, 4500000.0, -4500000.375, -4500000.375, -4500000.375, 0.026500000851228833, 0.9880000576376915, 0.2080000089481473, 192.0, 0.0, 0.0, 0.0, 0.0, 0.0, 0.0, 0.0, 0.0, 0.0, 1.62985705945981E9, 2021-08-24 20:04:19.459
58.0, -3138318.375, -3053365.3125, -4325682.375, -4500000.375, -4500000.375, -4275319.875, -3259177.125, -3804652.125, -4500000.375, -4500000.375, -4500000.375, 4500000.0, 4500000.0, -4500000.375, -4500000.375, -4500000.375, 0.026500000851228833, 0.9880000576376915, 0.2080000089481473, 192.0, 0.0, 0.0, 0.0, 0.0, 0.0, 0.0, 0.0, 0.0, 0.0, 1.6298570594598217E9, 2021-08-24 20:04:19.459
60.0, -3149847.0, -3073126.125, -4323379.5, -4500000.375, -4500000.375, -4273056.0, -3277821.0, -3805716.375, -4500000.375, -4500000.375, -4500000.375, 4500000.0, 4500000.0, -4500000.375, -4500000.375, -4500000.375, 0.026500000851228833, 0.9880000576376915, 0.2080000089481473, 192.0, 0.0, 0.0, 0.0, 0.0, 0.0, 0.0, 0.0, 0.0, 0.0, 1.6298570594598312E9, 2021-08-24 20:04:19.459
62.0, -3139285.5, -3055811.4375, -4325579.625, -4500000.375, -4500000.375, -4275327.75, -3260286.375, -3804649.875, -4500000.375, -4500000.375, -4500000.375, 4500000.0, 4500000.0, -4500000.375, -4500000.375, -4500000.375, 0.026500000851228833, 0.9880000576376915, 0.2080000089481473, 192.0, 0.0, 0.0, 0.0, 0.0, 0.0, 0.0, 0.0, 0.0, 0.0, 1.6298570594598408E9, 2021-08-24 20:04:19.459
64.0, -3148947.0, -3070630.125, -4323681.75, -4500000.375, -4500000.375, -4273492.125, -3277108.875, -3806098.5, -4500000.375, -4500000.375, -4500000.375, 4500000.0, 4500000.0, -4500000.375, -4500000.375, -4500000.375, 0.026000000536441803, 0.9860000610351562, 0.21000000834465027, 192.0, 0.0, 104.0, 15.0, 104.0, 3.0, 72.0, 0.0, 0.0, 0.0, 1.6298570594598484E9, 2021-08-24 20:04:19.459
66.0, -3140625.0, -3058735.6875, -4325363.25, -4500000.375, -4500000.375, -4275069.375, -3261658.875, -3804702.0, -4500000.375, -4500000.375, -4500000.375, 4500000.0, 4500000.0, -4500000.375, -4500000.375, -4500000.375, 0.026000000536441803, 0.9860000610351562, 0.21000000834465027, 192.0, 0.0, 0.0, 0.0, 0.0, 0.0, 0.0, 0.0, 0.0, 0.0, 1.6298570594598646E9, 2021-08-24 20:04:19.459
68.0, -3147462.75, -3067523.0625, -4323852.0, -4500000.375, -4500000.375, -4273434.75, -3275054.625, -3805893.375, -4500000.375, -4500000.375, -4500000.375, 4500000.0, 4500000.0, -4500000.375, -4500000.375, -4500000.375, 0.026000000536441803, 0.9860000610351562, 0.21000000834465027, 192.0, 0.0, 0.0, 0.0, 0.0, 0.0, 0.0, 0.0, 0.0, 0.0, 1.6298570594598715E9, 2021-08-24 20:04:19.459
70.0, -3142368.5625, -3062305.6875, -4325497.875, -4500000.375, -4500000.375, -4274972.25, -3263499.75, -3804859.875, -4500000.375, -4500000.375, -4500000.375, 4500000.0, 4500000.0, -4500000.375, -4500000.375, -4500000.375, 0.026000000536441803, 0.9860000610351562, 0.21000000834465027, 192.0, 0.0, 0.0, 0.0, 0.0, 0.0, 0.0, 0.0, 0.0, 0.0, 1.6298570594598787E9, 2021-08-24 20:04:19.459
72.0, -3146124.0, -3064330.6875, -4324289.25, -4500000.375, -4500000.375, -4273919.25, -3273105.75, -3806103.375, -4500000.375, -4500000.375, -4500000.375, 4500000.0, 4500000.0, -4500000.375, -4500000.375, -4500000.375, 0.026000000536441803, 0.9860000610351562, 0.21000000834465027, 192.0, 0.0, 0.0, 0.0, 0.0, 0.0, 0.0, 0.0, 0.0, 0.0, 1.629857059459886E9, 2021-08-24 20:04:19.459
74.0, -3144172.5, -3065641.3125, -4325070.375, -4500000.375, -4500000.375, -4274772.75, -3266083.875, -3805068.375, -4500000.375, -4500000.375, -4500000.375, 4500000.0, 4500000.0, -4500000.375, -4500000.375, -4500000.375, 0.02800000086426735, 0.9880000352859497, 0.21000000834465027, 192.0, 0.0, 112.0, 15.0, 112.0, 3.0, 72.0, 0.0, 0.0, 0.0, 1.6298570594599087E9, 2021-08-24 20:04:19.459
76.0, -3144617.8125, -3061019.25, -4324679.25, -4500000.375, -4500000.375, -4274367.75, -3270847.5, -3806253.0, -4500000.375, -4500000.375, -4500000.375, 4500000.0, 4500000.0, -4500000.375, -4500000.375, -4500000.375, 0.02800000086426735, 0.9880000352859497, 0.21000000834465027, 192.0, 0.0, 0.0, 0.0, 0.0, 0.0, 0.0, 0.0, 0.0, 0.0, 1.629857059459936E9, 2021-08-24 20:04:19.459
78.0, -3146102.25, -3069047.625, -4324966.875, -4500000.375, -4500000.375, -4274719.125, -3268624.875, -3805422.0, -4500000.375, -4500000.375, -4500000.375, 4500000.0, 4500000.0, -4500000.375, -4500000.375, -4500000.375, 0.02800000086426735, 0.9880000352859497, 0.21000000834465027, 192.0, 0.0, 0.0, 0.0, 0.0, 0.0, 0.0, 0.0, 0.0, 0.0, 1.6298570594599445E9, 2021-08-24 20:04:19.459
80.0, -3142873.3125, -3057931.5, -4324953.375, -4500000.375, -4500000.375, -4274719.125, -3268636.125, -3806051.25, -4500000.375, -4500000.375, -4500000.375, 4500000.0, 4500000.0, -4500000.375, -4500000.375, -4500000.375, 0.02800000086426735, 0.9880000352859497, 0.21000000834465027, 192.0, 0.0, 0.0, 0.0, 0.0, 0.0, 0.0, 0.0, 0.0, 0.0, 1.629857059459952E9, 2021-08-24 20:04:19.459
82.0, -3147554.25, -3072006.1875, -4324499.625, -4500000.375, -4500000.375, -4274220.75, -3271196.625, -3805222.5, -4500000.375, -4500000.375, -4500000.375, 4500000.0, 4500000.0, -4500000.375, -4500000.375, -4500000.375, 0.02800000086426735, 0.9880000352859497, 0.21000000834465027, 192.0, 0.0, 0.0, 0.0, 0.0, 0.0, 0.0, 0.0, 0.0, 0.0, 1.6298570594599597E9, 2021-08-24 20:04:19.459
84.0, -3141199.125, -3055079.25, -4325303.25, -4500000.375, -4500000.375, -4274957.25, -3266247.375, -3805962.75, -4500000.375, -4500000.375, -4500000.375, 4500000.0, 4500000.0, -4500000.375, -4500000.375, -4500000.375, 0.02800000086426735, 0.9880000352859497, 0.2120000123977661, 192.0, 0.0, 112.0, 15.0, 112.0, 3.0, 80.0, 0.0, 0.0, 0.0, 1.6298570594599671E9, 2021-08-24 20:04:19.459
86.0, -3148853.625, -3074426.625, -4324229.25, -4500000.375, -4500000.375, -4273823.625, -3273610.5, -3805347.375, -4500000.375, -4500000.375, -4500000.375, 4500000.0, 4500000.0, -4500000.375, -4500000.375, -4500000.375, 0.02800000086426735, 0.9880000352859497, 0.2120000123977661, 192.0, 0.0, 0.0, 0.0, 0.0, 0.0, 0.0, 0.0, 0.0, 0.0, 1.6298570594599743E9, 2021-08-24 20:04:19.459
88.0, -3139492.6875, -3052920.0, -4325449.875, -4500000.375, -4500000.375, -4274976.375, -3263590.5, -3805510.5, -4500000.375, -4500000.375, -4500000.375, 4500000.0, 4500000.0, -4500000.375, -4500000.375, -4500000.375, 0.02800000086426735, 0.9880000352859497, 0.2120000123977661, 192.0, 0.0, 0.0, 0.0, 0.0, 0.0, 0.0, 0.0, 0.0, 0.0, 1.6298570594599824E9, 2021-08-24 20:04:19.459
90.0, -3150257.25, -3076368.9375, -4324222.875, -4500000.375, -4500000.375, -4273827.75, -3275860.5, -3805674.0, -4500000.375, -4500000.375, -4500000.375, 4500000.0, 4500000.0, -4500000.375, -4500000.375, -4500000.375, 0.02800000086426735, 0.9880000352859497, 0.2120000123977661, 192.0, 0.0, 0.0, 0.0, 0.0, 0.0, 0.0, 0.0, 0.0, 0.0, 1.62985705945999E9, 2021-08-24 20:04:19.459
92.0, -3138824.25, -3051498.0, -4325805.0, -4500000.375, -4500000.375, -4275493.5, -3262215.0, -3805561.5, -4500000.375, -4500000.375, -4500000.375, 4500000.0, 4500000.0, -4500000.375, -4500000.375, -4500000.375, 0.02800000086426735, 0.9880000352859497, 0.2120000123977661, 192.0, 0.0, 0.0, 0.0, 0.0, 0.0, 0.0, 0.0, 0.0, 0.0, 1.6298570594599977E9, 2021-08-24 20:04:19.459
94.0, -3151158.75, -3077480.4375, -4324133.25, -4500000.375, -4500000.375, -4273858.5, -3277884.375, -3805812.0, -4500000.375, -4500000.375, -4500000.375, 4500000.0, 4500000.0, -4500000.375, -4500000.375, -4500000.375, 0.030000001192092896, 0.9860000610351562, 0.21800000965595245, 192.0, 0.0, 120.0, 15.0, 104.0, 3.0, 104.0, 0.0, 0.0, 0.0, 1.629857059460005E9, 2021-08-24 20:04:19.460
96.0, -3138464.25, -3051288.75, -4326185.25, -4500000.375, -4500000.375, -4275861.0, -3260812.875, -3805563.0, -4500000.375, -4500000.375, -4500000.375, 4500000.0, 4500000.0, -4500000.375, -4500000.375, -4500000.375, 0.030000001192092896, 0.9860000610351562, 0.21800000965595245, 192.0, 0.0, 0.0, 0.0, 0.0, 0.0, 0.0, 0.0, 0.0, 0.0, 1.6298570594600124E9, 2021-08-24 20:04:19.460
98.0, -3151770.75, -3077769.5625, -4324012.125, -4500000.375, -4500000.375, -4273735.125, -3278992.875, -3806181.0, -4500000.375, -4500000.375, -4500000.375, 4500000.0, 4500000.0, -4500000.375, -4500000.375, -4500000.375, 0.030000001192092896, 0.9860000610351562, 0.21800000965595245, 192.0, 0.0, 0.0, 0.0, 0.0, 0.0, 0.0, 0.0, 0.0, 0.0, 1.6298570594600356E9, 2021-08-24 20:04:19.460
100.0, -3138251.25, -3051612.1875, -4326191.625, -4500000.375, -4500000.375, -4275922.125, -3260047.875, -3805412.625, -4500000.375, -4500000.375, -4500000.375, 4500000.0, 4500000.0, -4500000.375, -4500000.375, -4500000.375, 0.030000001192092896, 0.9860000610351562, 0.21800000965595245, 192.0, 0.0, 0.0, 0.0, 0.0, 0.0, 0.0, 0.0, 0.0, 0.0, 1.6298570594600499E9, 2021-08-24 20:04:19.460
102.0, -3151779.375, -3076890.375, -4323882.375, -4500000.375, -4500000.375, -4273654.5, -3279439.125, -3806261.625, -4500000.375, -4500000.375, -4500000.375, 4500000.0, 4500000.0, -4500000.375, -4500000.375, -4500000.375, 0.030000001192092896, 0.9860000610351562, 0.21800000965595245, 192.0, 0.0, 0.0, 0.0, 0.0, 0.0, 0.0, 0.0, 0.0, 0.0, 1.6298570594600596E9, 2021-08-24 20:04:19.460
104.0, -3138626.25, -3052704.9375, -4326055.5, -4500000.375, -4500000.375, -4275788.25, -3259563.375, -3805213.125, -4500000.375, -4500000.375, -4500000.375, 4500000.0, 4500000.0, -4500000.375, -4500000.375, -4500000.375, 0.024000000208616257, 0.9860000610351562, 0.2120000123977661, 192.0, 0.0, 96.0, 15.0, 104.0, 3.0, 80.0, 0.0, 0.0, 0.0, 1.6298570594600685E9, 2021-08-24 20:04:19.460
106.0, -3151542.375, -3075408.75, -4323821.625, -4500000.375, -4500000.375, -4273539.75, -3279227.625, -3806451.375, -4500000.375, -4500000.375, -4500000.375, 4500000.0, 4500000.0, -4500000.375, -4500000.375, -4500000.375, 0.024000000208616257, 0.9860000610351562, 0.2120000123977661, 192.0, 0.0, 0.0, 0.0, 0.0, 0.0, 0.0, 0.0, 0.0, 0.0, 1.6298570599401312E9, 2021-08-24 20:04:19.940
108.0, -3139419.75, -3054672.0, -4326018.75, -4500000.375, -4500000.375, -4275661.875, -3260094.0, -3805200.375, -4500000.375, -4500000.375, -4500000.375, 4500000.0, 4500000.0, -4500000.375, -4500000.375, -4500000.375, 0.024000000208616257, 0.9860000610351562, 0.2120000123977661, 192.0, 0.0, 0.0, 0.0, 0.0, 0.0, 0.0, 0.0, 0.0, 0.0, 1.6298570599401553E9, 2021-08-24 20:04:19.940
110.0, -3150583.5, -3073111.125, -4323925.125, -4500000.375, -4500000.375, -4273632.0, -3278466.375, -3806542.5, -4500000.375, -4500000.375, -4500000.375, 4500000.0, 4500000.0, -4500000.375, -4500000.375, -4500000.375, 0.024000000208616257, 0.9860000610351562, 0.2120000123977661, 192.0, 0.0, 0.0, 0.0, 0.0, 0.0, 0.0, 0.0, 0.0, 0.0, 1.629857059940354E9, 2021-08-24 20:04:19.940
112.0, -3140232.9375, -3057397.125, -4325869.875, -4500000.375, -4500000.375, -4275604.5, -3261496.125, -3805093.5, -4500000.375, -4500000.375, -4500000.375, 4500000.0, 4500000.0, -4500000.375, -4500000.375, -4500000.375, 0.02500000037252903, 0.9840000569820404, 0.2110000103712082, 192.0, 0.0, 104.0, 15.0, 88.0, 3.0, 72.0, 0.0, 0.0, 0.0, 1.6298570599403632E9, 2021-08-24 20:04:19.940
114.0, -3148953.75, -3070386.0, -4324033.5, -4500000.375, -4500000.375, -4273761.0, -3277362.0, -3806398.125, -4500000.375, -4500000.375, -4500000.375, 4500000.0, 4500000.0, -4500000.375, -4500000.375, -4500000.375, 0.02500000037252903, 0.9840000569820404, 0.2110000103712082, 192.0, 0.0, 0.0, 0.0, 0.0, 0.0, 0.0, 0.0, 0.0, 0.0, 1.6298570599403722E9, 2021-08-24 20:04:19.940
116.0, -3141695.25, -3060527.8125, -4326042.375, -4500000.375, -4500000.375, -4275751.5, -3263164.5, -3805297.875, -4500000.375, -4500000.375, -4500000.375, 4500000.0, 4500000.0, -4500000.375, -4500000.375, -4500000.375, 0.02500000037252903, 0.9840000569820404, 0.2110000103712082, 192.0, 0.0, 0.0, 0.0, 0.0, 0.0, 0.0, 0.0, 0.0, 0.0, 1.6298570599403808E9, 2021-08-24 20:04:19.940
118.0, -3147962.625, -3067585.875, -4324785.75, -4500000.375, -4500000.375, -4274544.0, -3276068.25, -3806803.875, -4500000.375, -4500000.375, -4500000.375, 4500000.0, 4500000.0, -4500000.375, -4500000.375, -4500000.375, 0.02500000037252903, 0.9840000569820404, 0.2110000103712082, 192.0, 0.0, 0.0, 0.0, 0.0, 0.0, 0.0, 0.0, 0.0, 0.0, 1.6298570599403903E9, 2021-08-24 20:04:19.940
120.0, -3143589.0, -3064040.4375, -4325646.75, -4500000.375, -4500000.375, -4275463.125, -3265461.375, -3805467.375, -4500000.375, -4500000.375, -4500000.375, 4500000.0, 4500000.0, -4500000.375, -4500000.375, -4500000.375, 0.02500000037252903, 0.9840000569820404, 0.2110000103712082, 192.0, 0.0, 0.0, 0.0, 0.0, 0.0, 0.0, 0.0, 0.0, 0.0, 1.629857059940402E9, 2021-08-24 20:04:19.940
122.0, -3146142.75, -3063904.3125, -4324330.875, -4500000.375, -4500000.375, -4274155.125, -3273243.0, -3806366.625, -4500000.375, -4500000.375, -4500000.375, 4500000.0, 4500000.0, -4500000.375, -4500000.375, -4500000.375, 0.024500000290572643, 0.9850000590085983, 0.2135000079870224, 192.0, 0.0, 96.0, 15.0, 104.0, 3.0, 96.0, 0.0, 0.0, 0.0, 1.6298570599404113E9, 2021-08-24 20:04:19.940
124.0, -3145072.6875, -3067133.625, -4325331.0, -4500000.375, -4500000.375, -4275149.625, -3267630.0, -3805467.0, -4500000.375, -4500000.375, -4500000.375, 4500000.0, 4500000.0, -4500000.375, -4500000.375, -4500000.375, 0.024500000290572643, 0.9850000590085983, 0.2135000079870224, 192.0, 0.0, 0.0, 0.0, 0.0, 0.0, 0.0, 0.0, 0.0, 0.0, 1.6298570599404197E9, 2021-08-24 20:04:19.940
126.0, -3144431.625, -3060561.1875, -4325141.625, -4500000.375, -4500000.375, -4274863.875, -3271266.0, -3806647.125, -4500000.375, -4500000.375, -4500000.375, 4500000.0, 4500000.0, -4500000.375, -4500000.375, -4500000.375, 0.024500000290572643, 0.9850000590085983, 0.2135000079870224, 192.0, 0.0, 0.0, 0.0, 0.0, 0.0, 0.0, 0.0, 0.0, 0.0, 1.6298570599404275E9, 2021-08-24 20:04:19.940
128.0, -3146979.375, -3070558.875, -4325171.25, -4500000.375, -4500000.375, -4274859.375, -3270247.5, -3805559.25, -4500000.375, -4500000.375, -4500000.375, 4500000.0, 4500000.0, -4500000.375, -4500000.375, -4500000.375, 0.024500000290572643, 0.9850000590085983, 0.2135000079870224, 192.0, 0.0, 0.0, 0.0, 0.0, 0.0, 0.0, 0.0, 0.0, 0.0, 1.629857059940436E9, 2021-08-24 20:04:19.940
130.0, -3142902.1875, -3057879.375, -4325420.25, -4500000.375, -4500000.375, -4275192.0, -3268744.125, -3806263.5, -4500000.375, -4500000.375, -4500000.375, 4500000.0, 4500000.0, -4500000.375, -4500000.375, -4500000.375, 0.024500000290572643, 0.9850000590085983, 0.2135000079870224, 192.0, 0.0, 0.0, 0.0, 0.0, 0.0, 0.0, 0.0, 0.0, 0.0, 1.6298570599404447E9, 2021-08-24 20:04:19.940
132.0, -3148651.5, -3073683.5625, -4324716.375, -4500000.375, -4500000.375, -4274542.5, -3272940.0, -3805539.375, -4500000.375, -4500000.375, -4500000.375, 4500000.0, 4500000.0, -4500000.375, -4500000.375, -4500000.375, 0.02725000074133277, 0.9845000430941582, 0.21275001019239426, 192.0, 0.0, 120.0, 15.0, 96.0, 3.0, 80.0, 0.0, 0.0, 0.0, 1.6298570599404533E9, 2021-08-24 20:04:19.940
134.0, -3141403.5, -3055419.375, -4325800.125, -4500000.375, -4500000.375, -4275541.125, -3266425.5, -3806276.625, -4500000.375, -4500000.375, -4500000.375, 4500000.0, 4500000.0, -4500000.375, -4500000.375, -4500000.375, 0.02725000074133277, 0.9845000430941582, 0.21275001019239426, 192.0, 0.0, 0.0, 0.0, 0.0, 0.0, 0.0, 0.0, 0.0, 0.0, 1.629857059940472E9, 2021-08-24 20:04:19.940
136.0, -3149983.875, -3076206.9375, -4324450.875, -4500000.375, -4500000.375, -4274149.125, -3275226.75, -3805772.625, -4500000.375, -4500000.375, -4500000.375, 4500000.0, 4500000.0, -4500000.375, -4500000.375, -4500000.375, 0.02725000074133277, 0.9845000430941582, 0.21275001019239426, 192.0, 0.0, 0.0, 0.0, 0.0, 0.0, 0.0, 0.0, 0.0, 0.0, 1.6298570599404812E9, 2021-08-24 20:04:19.940
138.0, -3139956.1875, -3053447.4375, -4325678.625, -4500000.375, -4500000.375, -4275365.25, -3264040.125, -3805918.5, -4500000.375, -4500000.375, -4500000.375, 4500000.0, 4500000.0, -4500000.375, -4500000.375, -4500000.375, 0.02725000074133277, 0.9845000430941582, 0.21275001019239426, 192.0, 0.0, 0.0, 0.0, 0.0, 0.0, 0.0, 0.0, 0.0, 0.0, 1.6298570599404898E9, 2021-08-24 20:04:19.940
140.0, -3151145.625, -3077684.8125, -4324354.125, -4500000.375, -4500000.375, -4274007.0, -3277221.0, -3806190.0, -4500000.375, -4500000.375, -4500000.375, 4500000.0, 4500000.0, -4500000.375, -4500000.375, -4500000.375, 0.02725000074133277, 0.9845000430941582, 0.21275001019239426, 192.0, 0.0, 0.0, 0.0, 0.0, 0.0, 0.0, 0.0, 0.0, 0.0, 1.6298570599404984E9, 2021-08-24 20:04:19.940
142.0, -3139221.1875, -3052369.6875, -4326075.375, -4500000.375, -4500000.375, -4275661.5, -3262277.25, -3806021.625, -4500000.375, -4500000.375, -4500000.375, 4500000.0, 4500000.0, -4500000.375, -4500000.375, -4500000.375, 0.02762500080280006, 0.9862500391900539, 0.20937501266598701, 192.0, 0.0, 112.0, 15.0, 112.0, 3.0, 56.0, 0.0, 0.0, 0.0, 1.629857059940508E9, 2021-08-24 20:04:19.940
144.0, -3151933.125, -3078461.625, -4324257.75, -4500000.375, -4500000.375, -4273898.25, -3278967.375, -3806439.375, -4500000.375, -4500000.375, -4500000.375, 4500000.0, 4500000.0, -4500000.375, -4500000.375, -4500000.375, 0.02762500080280006, 0.9862500391900539, 0.20937501266598701, 192.0, 0.0, 0.0, 0.0, 0.0, 0.0, 0.0, 0.0, 0.0, 0.0, 1.6298570599405167E9, 2021-08-24 20:04:19.940
146.0, -3138814.125, -3051933.5625, -4326165.375, -4500000.375, -4500000.375, -4275703.875, -3261158.625, -3805803.75, -4500000.375, -4500000.375, -4500000.375, 4500000.0, 4500000.0, -4500000.375, -4500000.375, -4500000.375, 0.02762500080280006, 0.9862500391900539, 0.20937501266598701, 192.0, 0.0, 0.0, 0.0, 0.0, 0.0, 0.0, 0.0, 0.0, 0.0, 1.6298570599405267E9, 2021-08-24 20:04:19.940
148.0, -3152108.25, -3078133.3125, -4324066.875, -4500000.375, -4500000.375, -4273624.125, -3279808.5, -3806485.125, -4500000.375, -4500000.375, -4500000.375, 4500000.0, 4500000.0, -4500000.375, -4500000.375, -4500000.375, 0.02762500080280006, 0.9862500391900539, 0.20937501266598701, 192.0, 0.0, 0.0, 0.0, 0.0, 0.0, 0.0, 0.0, 0.0, 0.0, 1.6298570599405355E9, 2021-08-24 20:04:19.940
150.0, -3138666.5625, -3052503.1875, -4326221.25, -4500000.375, -4500000.375, -4275827.625, -3260470.5, -3805618.125, -4500000.375, -4500000.375, -4500000.375, 4500000.0, 4500000.0, -4500000.375, -4500000.375, -4500000.375, 0.02762500080280006, 0.9862500391900539, 0.20937501266598701, 192.0, 0.0, 0.0, 0.0, 0.0, 0.0, 0.0, 0.0, 0.0, 0.0, 1.6298570599405448E9, 2021-08-24 20:04:19.940
152.0, -3151833.0, -3077255.25, -4323902.25, -4500000.375, -4500000.375, -4273604.25, -3280020.75, -3806521.5, -4500000.375, -4500000.375, -4500000.375, 4500000.0, 4500000.0, -4500000.375, -4500000.375, -4500000.375, 0.025812500505708158, 0.9881250541657209, 0.2076875139027834, 192.0, 0.0, 96.0, 15.0, 120.0, 3.0, 56.0, 0.0, 0.0, 0.0, 1.6298570599405544E9, 2021-08-24 20:04:19.940
154.0, -3139106.4375, -3054101.25, -4326450.0, -4500000.375, -4500000.375, -4276191.375, -3260662.125, -3805786.875, -4500000.375, -4500000.375, -4500000.375, 4500000.0, 4500000.0, -4500000.375, -4500000.375, -4500000.375, 0.025812500505708158, 0.9881250541657209, 0.2076875139027834, 192.0, 0.0, 0.0, 0.0, 0.0, 0.0, 0.0, 0.0, 0.0, 0.0, 1.6298570599405632E9, 2021-08-24 20:04:19.940
156.0, -3151584.75, -3075710.8125, -4324325.25, -4500000.375, -4500000.375, -4274113.875, -3280132.125, -3807122.25, -4500000.375, -4500000.375, -4500000.375, 4500000.0, 4500000.0, -4500000.375, -4500000.375, -4500000.375, 0.025812500505708158, 0.9881250541657209, 0.2076875139027834, 192.0, 0.0, 0.0, 0.0, 0.0, 0.0, 0.0, 0.0, 0.0, 0.0, 1.6298570599405723E9, 2021-08-24 20:04:19.940
158.0, -3139831.125, -3056254.5, -4326084.375, -4500000.375, -4500000.375, -4275904.125, -3261226.875, -3805653.75, -4500000.375, -4500000.375, -4500000.375, 4500000.0, 4500000.0, -4500000.375, -4500000.375, -4500000.375, 0.025812500505708158, 0.9881250541657209, 0.2076875139027834, 192.0, 0.0, 0.0, 0.0, 0.0, 0.0, 0.0, 0.0, 0.0, 0.0, 1.6298570599405828E9, 2021-08-24 20:04:19.940
160.0, -3150216.75, -3073127.8125, -4324102.875, -4500000.375, -4500000.375, -4273942.875, -3278659.125, -3806961.0, -4500000.375, -4500000.375, -4500000.375, 4500000.0, 4500000.0, -4500000.375, -4500000.375, -4500000.375, 0.025812500505708158, 0.9881250541657209, 0.2076875139027834, 192.0, 0.0, 0.0, 0.0, 0.0, 0.0, 0.0, 0.0, 0.0, 0.0, 1.6298570599405928E9, 2021-08-24 20:04:19.940
162.0, -3140747.4375, -3058740.9375, -4325844.0, -4500000.375, -4500000.375, -4275759.75, -3262226.25, -3805504.875, -4500000.375, -4500000.375, -4500000.375, 4500000.0, 4500000.0, -4500000.375, -4500000.375, -4500000.375, 0.02800000086426735, 0.9880000352859497, 0.20800000429153442, 192.0, 0.0, 112.0, 15.0, 112.0, 3.0, 64.0, 0.0, 0.0, 0.0, 1.6298570599406016E9, 2021-08-24 20:04:19.940
164.0, -3149033.25, -3070197.1875, -4324633.125, -4500000.375, -4500000.375, -4274574.75, -3277445.25, -3807235.5, -4500000.375, -4500000.375, -4500000.375, 4500000.0, 4500000.0, -4500000.375, -4500000.375, -4500000.375, 0.02800000086426735, 0.9880000352859497, 0.20800000429153442, 192.0, 0.0, 0.0, 0.0, 0.0, 0.0, 0.0, 0.0, 0.0, 0.0, 1.6298570599406106E9, 2021-08-24 20:04:19.940
166.0, -3142329.375, -3062212.3125, -4326024.375, -4500000.375, -4500000.375, -4275972.75, -3264115.125, -3805834.875, -4500000.375, -4500000.375, -4500000.375, 4500000.0, 4500000.0, -4500000.375, -4500000.375, -4500000.375, 0.02800000086426735, 0.9880000352859497, 0.20800000429153442, 192.0, 0.0, 0.0, 0.0, 0.0, 0.0, 0.0, 0.0, 0.0, 0.0, 1.6298570599406192E9, 2021-08-24 20:04:19.940
168.0, -3147281.25, -3067032.1875, -4324597.125, -4500000.375, -4500000.375, -4274536.5, -3275222.25, -3806932.5, -4500000.375, -4500000.375, -4500000.375, 4500000.0, 4500000.0, -4500000.375, -4500000.375, -4500000.375, 0.02800000086426735, 0.9880000352859497, 0.20800000429153442, 192.0, 0.0, 0.0, 0.0, 0.0, 0.0, 0.0, 0.0, 0.0, 0.0, 1.629857059940632E9, 2021-08-24 20:04:19.940
170.0, -3143614.125, -3065483.0625, -4325660.625, -4500000.375, -4500000.375, -4275559.5, -3266027.625, -3805488.375, -4500000.375, -4500000.375, -4500000.375, 4500000.0, 4500000.0, -4500000.375, -4500000.375, -4500000.375, 0.02800000086426735, 0.9880000352859497, 0.20800000429153442, 192.0, 0.0, 0.0, 0.0, 0.0, 0.0, 0.0, 0.0, 0.0, 0.0, 1.6298570599406407E9, 2021-08-24 20:04:19.940
172.0, -3145252.5, -3063789.0, -4325140.125, -4500000.375, -4500000.375, -4274981.625, -3272951.25, -3806753.25, -4500000.375, -4500000.375, -4500000.375, 4500000.0, 4500000.0, -4500000.375, -4500000.375, -4500000.375, 0.02800000086426735, 0.9900000691413879, 0.21000000834465027, 192.0, 0.0, 112.0, 15.0, 120.0, 3.0, 72.0, 0.0, 0.0, 0.0, 1.6298570599406493E9, 2021-08-24 20:04:19.940
174.0, -3145185.9375, -3069127.5, -4325590.875, -4500000.375, -4500000.375, -4275509.625, -3268514.25, -3805769.625, -4500000.375, -4500000.375, -4500000.375, 4500000.0, 4500000.0, -4500000.375, -4500000.375, -4500000.375, 0.02800000086426735, 0.9900000691413879, 0.21000000834465027, 192.0, 0.0, 0.0, 0.0, 0.0, 0.0, 0.0, 0.0, 0.0, 0.0, 1.6298570599406583E9, 2021-08-24 20:04:19.940
176.0, -3143378.0625, -3060639.0, -4325380.5, -4500000.375, -4500000.375, -4275382.125, -3270452.625, -3806797.5, -4500000.375, -4500000.375, -4500000.375, 4500000.0, 4500000.0, -4500000.375, -4500000.375, -4500000.375, 0.02800000086426735, 0.9900000691413879, 0.21000000834465027, 192.0, 0.0, 0.0, 0.0, 0.0, 0.0, 0.0, 0.0, 0.0, 0.0, 1.6298570599406672E9, 2021-08-24 20:04:19.940
178.0, -3146860.125, -3072291.5625, -4325118.0, -4500000.375, -4500000.375, -4275294.375, -3271153.125, -3806041.5, -4500000.375, -4500000.375, -4500000.375, 4500000.0, 4500000.0, -4500000.375, -4500000.375, -4500000.375, 0.02800000086426735, 0.9900000691413879, 0.21000000834465027, 192.0, 0.0, 0.0, 0.0, 0.0, 0.0, 0.0, 0.0, 0.0, 0.0, 1.6298570599406765E9, 2021-08-24 20:04:19.940
180.0, -3141751.6875, -3057593.625, -4325566.125, -4500000.375, -4500000.375, -4275780.375, -3268086.375, -3806775.75, -4500000.375, -4500000.375, -4500000.375, 4500000.0, 4500000.0, -4500000.375, -4500000.375, -4500000.375, 0.02800000086426735, 0.9900000691413879, 0.21000000834465027, 192.0, 0.0, 0.0, 0.0, 0.0, 0.0, 0.0, 0.0, 0.0, 0.0, 1.6298570599406855E9, 2021-08-24 20:04:19.940
182.0, -3148536.0, -3074898.5625, -4324885.875, -4500000.375, -4500000.375, -4275155.625, -3273740.625, -3806331.0, -4500000.375, -4500000.375, -4500000.375, 4500000.0, 4500000.0, -4500000.375, -4500000.375, -4500000.375, 0.026000000536441803, 0.9860000610351562, 0.2120000123977661, 192.0, 0.0, 104.0, 15.0, 104.0, 3.0, 80.0, 0.0, 0.0, 0.0, 1.6298570599406948E9, 2021-08-24 20:04:19.940
184.0, -3140338.6875, -3055108.6875, -4325731.5, -4500000.375, -4500000.375, -4275960.375, -3265755.375, -3806621.25, -4500000.375, -4500000.375, -4500000.375, 4500000.0, 4500000.0, -4500000.375, -4500000.375, -4500000.375, 0.026000000536441803, 0.9860000610351562, 0.2120000123977661, 192.0, 0.0, 0.0, 0.0, 0.0, 0.0, 0.0, 0.0, 0.0, 0.0, 1.6298570599407036E9, 2021-08-24 20:04:19.940
186.0, -3149422.125, -3076848.5625, -4324056.75, -4500000.375, -4500000.375, -4274236.125, -3275581.875, -3805911.0, -4500000.375, -4500000.375, -4500000.375, 4500000.0, 4500000.0, -4500000.375, -4500000.375, -4500000.375, 0.026000000536441803, 0.9860000610351562, 0.2120000123977661, 192.0, 0.0, 0.0, 0.0, 0.0, 0.0, 0.0, 0.0, 0.0, 0.0, 1.6298570599407125E9, 2021-08-24 20:04:19.940
188.0, -3138834.375, -3053290.125, -4326038.25, -4500000.375, -4500000.375, -4276178.625, -3263492.25, -3806192.625, -4500000.375, -4500000.375, -4500000.375, 4500000.0, 4500000.0, -4500000.375, -4500000.375, -4500000.375, 0.026000000536441803, 0.9860000610351562, 0.2120000123977661, 192.0, 0.0, 0.0, 0.0, 0.0, 0.0, 0.0, 0.0, 0.0, 0.0, 1.6298570599407213E9, 2021-08-24 20:04:19.940
190.0, -3150791.625, -3078388.125, -4324378.5, -4500000.375, -4500000.375, -4274481.75, -3277897.875, -3806434.125, -4500000.375, -4500000.375, -4500000.375, 4500000.0, 4500000.0, -4500000.375, -4500000.375, -4500000.375, 0.026000000536441803, 0.9860000610351562, 0.2120000123977661, 192.0, 0.0, 0.0, 0.0, 0.0, 0.0, 0.0, 0.0, 0.0, 0.0, 1.6298570599407308E9, 2021-08-24 20:04:19.940
192.0, -3138431.625, -3052577.8125, -4326358.875, -4500000.375, -4500000.375, -4276420.125, -3262111.5, -3806116.125, -4500000.375, -4500000.375, -4500000.375, 4500000.0, 4500000.0, -4500000.375, -4500000.375, -4500000.375, 0.026000000536441803, 0.9880000352859497, 0.21000000834465027, 192.0, 0.0, 104.0, 15.0, 112.0, 3.0, 72.0, 0.0, 0.0, 0.0, 1.6298570599407396E9, 2021-08-24 20:04:19.940
194.0, -3151272.375, -3078748.6875, -4324286.25, -4500000.375, -4500000.375, -4274352.375, -3279234.0, -3806477.25, -4500000.375, -4500000.375, -4500000.375, 4500000.0, 4500000.0, -4500000.375, -4500000.375, -4500000.375, 0.026000000536441803, 0.9880000352859497, 0.21000000834465027, 192.0, 0.0, 0.0, 0.0, 0.0, 0.0, 0.0, 0.0, 0.0, 0.0, 1.6298570599407487E9, 2021-08-24 20:04:19.940
196.0, -3138019.125, -3052475.8125, -4326359.625, -4500000.375, -4500000.375, -4276458.0, -3260877.0, -3806043.0, -4500000.375, -4500000.375, -4500000.375, 4500000.0, 4500000.0, -4500000.375, -4500000.375, -4500000.375, 0.026000000536441803, 0.9880000352859497, 0.21000000834465027, 192.0, 0.0, 0.0, 0.0, 0.0, 0.0, 0.0, 0.0, 0.0, 0.0, 1.6298570599407585E9, 2021-08-24 20:04:19.940
198.0, -3151572.75, -3078485.25, -4324335.0, -4500000.375, -4500000.375, -4274556.75, -3280299.375, -3807050.625, -4500000.375, -4500000.375, -4500000.375, 4500000.0, 4500000.0, -4500000.375, -4500000.375, -4500000.375, 0.026000000536441803, 0.9880000352859497, 0.21000000834465027, 192.0, 0.0, 0.0, 0.0, 0.0, 0.0, 0.0, 0.0, 0.0, 0.0, 1.6298570599407687E9, 2021-08-24 20:04:19.940
200.0, -3138117.75, -3053383.5, -4326580.5, -4500000.375, -4500000.375, -4276784.25, -3260729.625, -3806086.125, -4500000.375, -4500000.375, -4500000.375, 4500000.0, 4500000.0, -4500000.375, -4500000.375, -4500000.375, 0.029000001028180122, 0.9880000352859497, 0.21000000834465027, 192.0, 0.5, 0.0, 15.0, 112.0, 3.0, 72.0, 0.0, 0.0, 0.0, 1.6298570599407787E9, 2021-08-24 20:04:19.940
202.0, -3151443.375, -3077404.3125, -4324592.625, -4500000.375, -4500000.375, -4274804.625, -3280666.5, -3807337.125, -4500000.375, -4500000.375, -4500000.375, 4500000.0, 4500000.0, -4500000.375, -4500000.375, -4500000.375, 0.029000001028180122, 0.9880000352859497, 0.21000000834465027, 192.0, 0.0, 0.0, 0.0, 0.0, 0.0, 0.0, 0.0, 0.0, 0.0, 1.6298570599408026E9, 2021-08-24 20:04:19.940
204.0, -3138698.8125, -3055176.9375, -4326579.375, -4500000.375, -4500000.375, -4276765.875, -3261076.5, -3805935.75, -4500000.375, -4500000.375, -4500000.375, 4500000.0, 4500000.0, -4500000.375, -4500000.375, -4500000.375, 0.029000001028180122, 0.9880000352859497, 0.21000000834465027, 192.0, 0.0, 0.0, 0.0, 0.0, 0.0, 0.0, 0.0, 0.0, 0.0, 1.6298570599408245E9, 2021-08-24 20:04:19.940
206.0, -3150604.875, -3075563.8125, -4324516.125, -4500000.375, -4500000.375, -4274704.5, -3279861.75, -3806989.875, -4500000.375, -4500000.375, -4500000.375, 4500000.0, 4500000.0, -4500000.375, -4500000.375, -4500000.375, 0.029000001028180122, 0.9880000352859497, 0.21000000834465027, 192.0, 0.0, 0.0, 0.0, 0.0, 0.0, 0.0, 0.0, 0.0, 0.0, 1.6298570599408517E9, 2021-08-24 20:04:19.940
208.0, -3139606.3125, -3057620.4375, -4326715.875, -4500000.375, -4500000.375, -4276846.875, -3261684.0, -3805631.625, -4500000.375, -4500000.375, -4500000.375, 4500000.0, 4500000.0, -4500000.375, -4500000.375, -4500000.375, 0.029000001028180122, 0.9880000352859497, 0.21000000834465027, 192.0, 0.0, 0.0, 0.0, 0.0, 0.0, 0.0, 0.0, 0.0, 0.0, 1.6298570599408605E9, 2021-08-24 20:04:19.940
210.0, -3149675.25, -3073038.1875, -4324780.875, -4500000.375, -4500000.375, -4274874.0, -3278757.375, -3807174.375, -4500000.375, -4500000.375, -4500000.375, 4500000.0, 4500000.0, -4500000.375, -4500000.375, -4500000.375, 0.028500000946223736, 0.9850000441074371, 0.21000000834465027, 192.0, 0.0, 112.0, 15.0, 88.0, 3.0, 72.0, 0.0, 0.0, 0.0, 1.6298570599408698E9, 2021-08-24 20:04:19.940
212.0, -3141069.1875, -3060671.0625, -4326510.75, -4500000.375, -4500000.375, -4276632.0, -3263104.5, -3805799.625, -4500000.375, -4500000.375, -4500000.375, 4500000.0, 4500000.0, -4500000.375, -4500000.375, -4500000.375, 0.028500000946223736, 0.9850000441074371, 0.21000000834465027, 192.0, 0.0, 0.0, 0.0, 0.0, 0.0, 0.0, 0.0, 0.0, 0.0, 1.629857059940894E9, 2021-08-24 20:04:19.940
214.0, -3148200.0, -3070185.9375, -4324736.625, -4500000.375, -4500000.375, -4274836.5, -3277071.75, -3806882.25, -4500000.375, -4500000.375, -4500000.375, 4500000.0, 4500000.0, -4500000.375, -4500000.375, -4500000.375, 0.028500000946223736, 0.9850000441074371, 0.21000000834465027, 192.0, 0.0, 0.0, 0.0, 0.0, 0.0, 0.0, 0.0, 0.0, 0.0, 1.629857059940922E9, 2021-08-24 20:04:19.940
216.0, -3142607.25, -3063974.0625, -4326225.0, -4500000.375, -4500000.375, -4276300.5, -3265053.375, -3805735.875, -4500000.375, -4500000.375, -4500000.375, 4500000.0, 4500000.0, -4500000.375, -4500000.375, -4500000.375, 0.028500000946223736, 0.9850000441074371, 0.21000000834465027, 192.0, 0.0, 0.0, 0.0, 0.0, 0.0, 0.0, 0.0, 0.0, 0.0, 1.6298570599409337E9, 2021-08-24 20:04:19.940
218.0, -3146833.5, -3067023.1875, -4325326.875, -4500000.375, -4500000.375, -4275293.625, -3275425.875, -3807106.5, -4500000.375, -4500000.375, -4500000.375, 4500000.0, 4500000.0, -4500000.375, -4500000.375, -4500000.375, 0.028500000946223736, 0.9850000441074371, 0.21000000834465027, 192.0, 0.0, 0.0, 0.0, 0.0, 0.0, 0.0, 0.0, 0.0, 0.0, 1.6298570599409428E9, 2021-08-24 20:04:19.940
220.0, -3144599.0625, -3067519.3125, -4326430.5, -4500000.375, -4500000.375, -4276269.75, -3267447.375, -3806100.0, -4500000.375, -4500000.375, -4500000.375, 4500000.0, 4500000.0, -4500000.375, -4500000.375, -4500000.375, 0.02725000074133277, 0.9855000525712967, 0.21400000900030136, 192.0, 0.0, 104.0, 15.0, 104.0, 3.0, 104.0, 0.0, 0.0, 0.0, 1.6298570599409604E9, 2021-08-24 20:04:19.940
222.0, -3145220.8125, -3063667.6875, -4325515.125, -4500000.375, -4500000.375, -4275338.625, -3272585.625, -3806928.75, -4500000.375, -4500000.375, -4500000.375, 4500000.0, 4500000.0, -4500000.375, -4500000.375, -4500000.375, 0.02725000074133277, 0.9855000525712967, 0.21400000900030136, 192.0, 0.0, 0.0, 0.0, 0.0, 0.0, 0.0, 0.0, 0.0, 0.0, 1.6298570599409742E9, 2021-08-24 20:04:19.940
224.0, -3146269.125, -3070716.0, -4325955.0, -4500000.375, -4500000.375, -4275893.625, -3269845.5, -3806084.25, -4500000.375, -4500000.375, -4500000.375, 4500000.0, 4500000.0, -4500000.375, -4500000.375, -4500000.375, 0.02725000074133277, 0.9855000525712967, 0.21400000900030136, 192.0, 0.0, 0.0, 0.0, 0.0, 0.0, 0.0, 0.0, 0.0, 0.0, 1.6298570599409816E9, 2021-08-24 20:04:19.940
226.0, -3143726.8125, -3060498.375, -4325868.75, -4500000.375, -4500000.375, -4275838.875, -3270340.875, -3806998.125, -4500000.375, -4500000.375, -4500000.375, 4500000.0, 4500000.0, -4500000.375, -4500000.375, -4500000.375, 0.02725000074133277, 0.9855000525712967, 0.21400000900030136, 192.0, 0.0, 0.0, 0.0, 0.0, 0.0, 0.0, 0.0, 0.0, 0.0, 1.629857060421448E9, 2021-08-24 20:04:20.421
228.0, -3148172.25, -3073872.375, -4325615.625, -4500000.375, -4500000.375, -4275586.5, -3272447.625, -3806140.875, -4500000.375, -4500000.375, -4500000.375, 4500000.0, 4500000.0, -4500000.375, -4500000.375, -4500000.375, 0.02725000074133277, 0.9855000525712967, 0.21400000900030136, 192.0, 0.0, 0.0, 0.0, 0.0, 0.0, 0.0, 0.0, 0.0, 0.0, 1.629857060421648E9, 2021-08-24 20:04:20.421
230.0, -3142184.0625, -3057691.125, -4326151.875, -4500000.375, -4500000.375, -4276065.375, -3267925.875, -3806707.875, -4500000.375, -4500000.375, -4500000.375, 4500000.0, 4500000.0, -4500000.375, -4500000.375, -4500000.375, 0.02762500080280006, 0.9877500608563423, 0.2160000093281269, 192.0, 0.0, 112.0, 15.0, 120.0, 3.0, 104.0, 0.0, 0.0, 0.0, 1.6298570604216547E9, 2021-08-24 20:04:20.421
232.0, -3149915.25, -3076477.875, -4325715.75, -4500000.375, -4500000.375, -4275652.5, -3275048.25, -3806617.5, -4500000.375, -4500000.375, -4500000.375, 4500000.0, 4500000.0, -4500000.375, -4500000.375, -4500000.375, 0.02762500080280006, 0.9877500608563423, 0.2160000093281269, 192.0, 0.0, 0.0, 0.0, 0.0, 0.0, 0.0, 0.0, 0.0, 0.0, 1.6298570604216611E9, 2021-08-24 20:04:20.421
234.0, -3140989.3125, -3055514.8125, -4326762.0, -4500000.375, -4500000.375, -4276639.875, -3265574.25, -3806808.75, -4500000.375, -4500000.375, -4500000.375, 4500000.0, 4500000.0, -4500000.375, -4500000.375, -4500000.375, 0.02762500080280006, 0.9877500608563423, 0.2160000093281269, 192.0, 0.0, 0.0, 0.0, 0.0, 0.0, 0.0, 0.0, 0.0, 0.0, 1.6298570604216678E9, 2021-08-24 20:04:20.421
236.0, -3151343.25, -3078536.25, -4325716.875, -4500000.375, -4500000.375, -4275591.375, -3277274.625, -3806932.5, -4500000.375, -4500000.375, -4500000.375, 4500000.0, 4500000.0, -4500000.375, -4500000.375, -4500000.375, 0.02762500080280006, 0.9877500608563423, 0.2160000093281269, 192.0, 0.0, 0.0, 0.0, 0.0, 0.0, 0.0, 0.0, 0.0, 0.0, 1.6298570604216747E9, 2021-08-24 20:04:20.421
238.0, -3140243.0625, -3054168.9375, -4327113.75, -4500000.375, -4500000.375, -4276876.125, -3263748.75, -3806703.375, -4500000.375, -4500000.375, -4500000.375, 4500000.0, 4500000.0, -4500000.375, -4500000.375, -4500000.375, 0.02762500080280006, 0.9877500608563423, 0.2160000093281269, 192.0, 0.0, 0.0, 0.0, 0.0, 0.0, 0.0, 0.0, 0.0, 0.0, 1.6298570604216821E9, 2021-08-24 20:04:20.421
240.0, -3151939.875, -3079392.375, -4324762.125, -4500000.375, -4500000.375, -4274450.625, -3278477.25, -3806318.25, -4500000.375, -4500000.375, -4500000.375, 4500000.0, 4500000.0, -4500000.375, -4500000.375, -4500000.375, 0.027812500833533704, 0.9898750521242619, 0.21500001288950443, 192.0, 0.0, 112.0, 15.5, 0.0, 3.0, 88.0, 0.0, 0.0, 0.0, 1.6298570604216888E9, 2021-08-24 20:04:20.421
242.0, -3139191.1875, -3053283.1875, -4326729.75, -4500000.375, -4500000.375, -4276355.25, -3261602.25, -3805881.75, -4500000.375, -4500000.375, -4500000.375, 4500000.0, 4500000.0, -4500000.375, -4500000.375, -4500000.375, 0.027812500833533704, 0.9898750521242619, 0.21500001288950443, 192.0, 0.0, 0.0, 0.0, 0.0, 0.0, 0.0, 0.0, 0.0, 0.0, 1.6298570604216952E9, 2021-08-24 20:04:20.421
244.0, -3152916.0, -3079855.875, -4325197.125, -4500000.375, -4500000.375, -4274823.375, -3279994.875, -3806988.375, -4500000.375, -4500000.375, -4500000.375, 4500000.0, 4500000.0, -4500000.375, -4500000.375, -4500000.375, 0.027812500833533704, 0.9898750521242619, 0.21500001288950443, 192.0, 0.0, 0.0, 0.0, 0.0, 0.0, 0.0, 0.0, 0.0, 0.0, 1.629857060421702E9, 2021-08-24 20:04:20.421
